timestamps,TP9,AF7,AF8,TP10
1660049417,-14.16,-35.645,-37.598,-17.09
1660049417,-26.855,-56.152,-52.734,-34.668
1660049417,-29.297,-35.645,-33.691,-28.32
1660049417,-26.367,-14.648,-26.367,-19.531
1660049417,-40.039,-57.129,-34.668,-25.879
1660049417,-45.898,-25.879,-33.203,-20.02
1660049417,-39.062,-4.883,-39.551,-20.996
1660049417,-20.996,-32.227,-36.621,-30.762
1660049417,-46.875,-53.223,-36.621,-44.922
1660049417,-54.199,-38.574,-36.133,-35.645
1660049417,-23.438,0,-33.203,-11.23
1660049417,-22.461,-14.16,-37.598,-24.414
1660049417,-28.32,-58.105,-51.27,-13.184
1660049417,-31.738,-22.949,-39.062,-22.949
1660049417,-31.25,-15.137,-32.227,-31.25
1660049417,-36.133,-55.176,-40.039,-29.785
1660049417,-42.48,-82.52,-51.27,-25.879
1660049417,-36.133,-48.34,-48.34,-21.484
1660049417,-23.438,29.785,-31.25,-9.277
1660049417,-20.996,-18.555,-26.855,-24.414
1660049417,-28.32,-58.105,-51.27,-13.184
1660049417,-31.738,-22.949,-39.062,-22.949
1660049417,-31.25,-15.137,-32.227,-31.25
1660049417,-36.133,-55.176,-40.039,-29.785
1660049417,-42.48,-82.52,-51.27,-25.879
1660049417,-36.133,-48.34,-48.34,-21.484
1660049417,-23.438,29.785,-31.25,-9.277
1660049417,-20.996,-18.555,-26.855,-24.414
1660049417,-28.32,-58.105,-51.27,-13.184
1660049417,-31.738,-22.949,-39.062,-22.949
1660049417,-31.25,-15.137,-32.227,-31.25
1660049417,-36.133,-55.176,-40.039,-29.785
1660049417,-42.48,-82.52,-51.27,-25.879
1660049417,-36.133,-48.34,-48.34,-21.484
1660049417,-23.438,29.785,-31.25,-9.277
1660049417,-20.996,-18.555,-26.855,-24.414
1660049417,-34.668,-63.477,-28.32,-39.551
1660049417,-40.527,-30.762,-29.785,-25.879
1660049417,-27.344,-22.949,-32.715,-16.602
1660049417,-30.273,-42.48,-36.621,-27.344
1660049417,-42.969,-43.945,-27.832,-23.438
1660049417,-36.133,3.906,-11.719,-8.789
1660049417,-27.832,-6.348,-22.949,-13.672
1660049417,-29.297,-60.547,-42.969,-18.066
1660049417,-42.48,-58.594,-43.945,-29.297
1660049417,-32.715,7.324,-16.602,-17.09
1660049417,-10.742,11.719,-5.859,6.836
1660049417,-25.879,-47.363,-37.598,-16.602
1660049417,-34.668,-63.477,-28.32,-39.551
1660049417,-40.527,-30.762,-29.785,-25.879
1660049417,-27.344,-22.949,-32.715,-16.602
1660049417,-30.273,-42.48,-36.621,-27.344
1660049417,-42.969,-43.945,-27.832,-23.438
1660049417,-36.133,3.906,-11.719,-8.789
1660049417,-27.832,-6.348,-22.949,-13.672
1660049417,-29.297,-60.547,-42.969,-18.066
1660049417,-42.48,-58.594,-43.945,-29.297
1660049417,-32.715,7.324,-16.602,-17.09
1660049417,-10.742,11.719,-5.859,6.836
1660049417,-25.879,-47.363,-37.598,-16.602
1660049417,-34.668,-59.082,-55.664,-24.902
1660049417,-31.25,-47.363,-41.504,-17.09
1660049417,-38.574,-40.039,-33.203,-20.996
1660049417,-40.039,-37.598,-29.785,-21.484
1660049417,-33.691,-39.551,-36.621,-15.625
1660049417,-29.297,-27.344,-46.387,-27.832
1660049417,-30.273,-33.691,-40.527,-30.273
1660049417,-41.504,-55.176,-34.18,-29.785
1660049417,-34.18,-54.688,-33.691,-25.391
1660049417,-10.742,18.555,-14.16,-1.465
1660049417,-11.719,-20.02,-25.879,7.324
1660049417,-24.902,-56.641,-35.156,-4.883
1660049417,-34.668,-59.082,-55.664,-24.902
1660049417,-31.25,-47.363,-41.504,-17.09
1660049417,-38.574,-40.039,-33.203,-20.996
1660049417,-40.039,-37.598,-29.785,-21.484
1660049417,-33.691,-39.551,-36.621,-15.625
1660049417,-29.297,-27.344,-46.387,-27.832
1660049417,-30.273,-33.691,-40.527,-30.273
1660049417,-41.504,-55.176,-34.18,-29.785
1660049417,-34.18,-54.688,-33.691,-25.391
1660049417,-10.742,18.555,-14.16,-1.465
1660049417,-11.719,-20.02,-25.879,7.324
1660049417,-24.902,-56.641,-35.156,-4.883
1660049417,-34.668,-59.082,-55.664,-24.902
1660049417,-31.25,-47.363,-41.504,-17.09
1660049417,-38.574,-40.039,-33.203,-20.996
1660049417,-40.039,-37.598,-29.785,-21.484
1660049417,-33.691,-39.551,-36.621,-15.625
1660049417,-29.297,-27.344,-46.387,-27.832
1660049417,-30.273,-33.691,-40.527,-30.273
1660049417,-41.504,-55.176,-34.18,-29.785
1660049417,-34.18,-54.688,-33.691,-25.391
1660049417,-10.742,18.555,-14.16,-1.465
1660049417,-11.719,-20.02,-25.879,7.324
1660049417,-24.902,-56.641,-35.156,-4.883
1660049417,-37.109,-35.645,-28.809,-22.949
1660049417,-42.969,-39.551,-28.809,-21.484
1660049417,-39.062,-40.527,-28.809,-17.578
1660049417,-29.785,-38.086,-38.574,-17.578
1660049417,-43.457,-37.109,-37.109,-25.391
1660049417,-52.734,-8.789,-21.484,-28.32
1660049417,-39.062,-29.785,-27.832,-31.25
1660049417,-38.086,-62.012,-36.133,-29.785
1660049417,-35.645,7.324,-38.086,-14.16
1660049417,-35.156,42.969,-35.645,-34.18
1660049417,-49.316,-33.691,-27.832,-50.781
1660049417,-45.898,-53.711,-21.973,-36.621
1660049417,-37.109,-35.645,-28.809,-22.949
1660049417,-42.969,-39.551,-28.809,-21.484
1660049417,-39.062,-40.527,-28.809,-17.578
1660049417,-29.785,-38.086,-38.574,-17.578
1660049417,-43.457,-37.109,-37.109,-25.391
1660049417,-52.734,-8.789,-21.484,-28.32
1660049417,-39.062,-29.785,-27.832,-31.25
1660049417,-38.086,-62.012,-36.133,-29.785
1660049417,-35.645,7.324,-38.086,-14.16
1660049417,-35.156,42.969,-35.645,-34.18
1660049417,-49.316,-33.691,-27.832,-50.781
1660049417,-45.898,-53.711,-21.973,-36.621
1660049417,-34.668,-26.367,-21.973,-24.414
1660049417,-28.809,-29.785,-34.18,-24.414
1660049417,-20.508,-27.832,-39.551,-15.625
1660049417,-26.855,-32.227,-33.691,-18.066
1660049417,-39.551,-41.992,-18.066,-33.203
1660049417,-50.293,-5.859,-16.113,-34.18
1660049417,-49.316,-15.625,-35.645,-36.621
1660049417,-38.574,-52.734,-42.969,-36.133
1660049417,-25.879,-36.133,-24.902,-16.113
1660049417,-49.316,-38.574,-25.391,-38.574
1660049417,-62.5,-39.062,-30.762,-49.316
1660049417,-43.457,-35.156,-35.645,-34.18
1660049417,-34.668,-26.367,-21.973,-24.414
1660049417,-28.809,-29.785,-34.18,-24.414
1660049417,-20.508,-27.832,-39.551,-15.625
1660049417,-26.855,-32.227,-33.691,-18.066
1660049417,-39.551,-41.992,-18.066,-33.203
1660049417,-50.293,-5.859,-16.113,-34.18
1660049417,-49.316,-15.625,-35.645,-36.621
1660049417,-38.574,-52.734,-42.969,-36.133
1660049417,-25.879,-36.133,-24.902,-16.113
1660049417,-49.316,-38.574,-25.391,-38.574
1660049417,-62.5,-39.062,-30.762,-49.316
1660049417,-43.457,-35.156,-35.645,-34.18
1660049417,-33.691,-37.109,-41.504,-33.691
1660049417,-30.273,-28.32,-32.715,-35.645
1660049417,-28.809,-19.043,-27.344,-39.062
1660049417,-14.16,-0.488,-20.996,-21.484
1660049417,-14.16,-45.41,-34.18,-11.23
1660049417,-20.02,-38.086,-36.621,-6.348
1660049417,-29.785,-31.738,-34.18,-18.066
1660049417,-30.762,-49.316,-20.996,-20.996
1660049417,-21.973,-33.203,-5.859,-6.348
1660049417,-30.273,-28.32,-26.367,-14.648
1660049417,-37.598,-46.875,-45.41,-18.555
1660049417,-36.621,-57.617,-41.016,-15.137
1660049417,-49.805,-53.223,-32.227,-25.391
1660049417,-45.41,-17.578,-24.414,-34.668
1660049417,-18.066,-12.207,-25.391,-27.832
1660049417,-30.273,-48.34,-45.41,-35.156
1660049417,-66.895,-70.312,-58.105,-51.758
1660049417,-66.406,-22.461,-34.668,-56.152
1660049417,-43.945,-11.23,-22.949,-41.016
1660049417,-66.406,-78.125,-58.105,-51.27
1660049417,-67.871,-78.613,-59.082,-51.758
1660049417,-33.691,-36.133,-32.227,-30.762
1660049417,-36.621,-15.137,-20.508,-31.25
1660049417,-57.129,-26.367,-20.508,-24.414
1660049417,-49.805,-53.223,-32.227,-25.391
1660049417,-45.41,-17.578,-24.414,-34.668
1660049417,-18.066,-12.207,-25.391,-27.832
1660049417,-30.273,-48.34,-45.41,-35.156
1660049417,-66.895,-70.312,-58.105,-51.758
1660049417,-66.406,-22.461,-34.668,-56.152
1660049417,-43.945,-11.23,-22.949,-41.016
1660049417,-66.406,-78.125,-58.105,-51.27
1660049417,-67.871,-78.613,-59.082,-51.758
1660049417,-33.691,-36.133,-32.227,-30.762
1660049417,-36.621,-15.137,-20.508,-31.25
1660049417,-57.129,-26.367,-20.508,-24.414
1660049417,-49.805,-53.223,-32.227,-25.391
1660049417,-45.41,-17.578,-24.414,-34.668
1660049417,-18.066,-12.207,-25.391,-27.832
1660049417,-30.273,-48.34,-45.41,-35.156
1660049417,-66.895,-70.312,-58.105,-51.758
1660049417,-66.406,-22.461,-34.668,-56.152
1660049417,-43.945,-11.23,-22.949,-41.016
1660049417,-66.406,-78.125,-58.105,-51.27
1660049417,-67.871,-78.613,-59.082,-51.758
1660049417,-33.691,-36.133,-32.227,-30.762
1660049417,-36.621,-15.137,-20.508,-31.25
1660049417,-57.129,-26.367,-20.508,-24.414
1660049417,-41.504,-28.809,-27.344,-9.766
1660049417,-27.344,-21.973,-24.902,-5.371
1660049417,-27.344,-28.809,-24.902,-17.578
1660049417,-33.203,-26.855,-25.391,-30.273
1660049417,-50.293,-20.02,-13.672,-31.738
1660049417,-40.039,1.953,-14.16,-29.297
1660049417,-9.277,20.996,-22.461,-5.371
1660049417,-17.09,-15.625,-28.809,-7.324
1660049417,-41.992,-49.316,-29.785,-33.203
1660049417,-46.387,-11.719,-20.508,-39.062
1660049417,-19.531,2.93,-12.207,-13.184
1660049417,-8.301,-15.625,-21.484,1.953
1660049417,-41.504,-28.809,-27.344,-9.766
1660049417,-27.344,-21.973,-24.902,-5.371
1660049417,-27.344,-28.809,-24.902,-17.578
1660049417,-33.203,-26.855,-25.391,-30.273
1660049417,-50.293,-20.02,-13.672,-31.738
1660049417,-40.039,1.953,-14.16,-29.297
1660049417,-9.277,20.996,-22.461,-5.371
1660049417,-17.09,-15.625,-28.809,-7.324
1660049417,-41.992,-49.316,-29.785,-33.203
1660049417,-46.387,-11.719,-20.508,-39.062
1660049417,-19.531,2.93,-12.207,-13.184
1660049417,-8.301,-15.625,-21.484,1.953
1660049417,-28.809,-51.27,-44.922,-24.902
1660049417,-33.691,-38.574,-37.598,-37.109
1660049417,-45.41,-17.578,-29.297,-36.621
1660049417,-36.133,-22.949,-30.273,-28.809
1660049417,-26.367,-36.133,-28.32,-7.324
1660049417,-34.668,-6.348,-29.785,-10.254
1660049417,-32.715,36.133,-29.297,-18.555
1660049417,-35.156,-20.508,-26.855,-17.578
1660049417,-40.039,-77.637,-34.668,-10.254
1660049417,-22.949,-40.527,-35.156,-19.043
1660049417,-11.719,-17.09,-39.551,-26.367
1660049417,-40.527,-39.062,-46.387,-28.32
1660049417,-28.809,-51.27,-44.922,-24.902
1660049417,-33.691,-38.574,-37.598,-37.109
1660049417,-45.41,-17.578,-29.297,-36.621
1660049417,-36.133,-22.949,-30.273,-28.809
1660049417,-26.367,-36.133,-28.32,-7.324
1660049417,-34.668,-6.348,-29.785,-10.254
1660049417,-32.715,36.133,-29.297,-18.555
1660049417,-35.156,-20.508,-26.855,-17.578
1660049417,-40.039,-77.637,-34.668,-10.254
1660049417,-22.949,-40.527,-35.156,-19.043
1660049417,-11.719,-17.09,-39.551,-26.367
1660049417,-40.527,-39.062,-46.387,-28.32
1660049417,-28.809,-51.27,-44.922,-24.902
1660049417,-33.691,-38.574,-37.598,-37.109
1660049417,-45.41,-17.578,-29.297,-36.621
1660049417,-36.133,-22.949,-30.273,-28.809
1660049417,-26.367,-36.133,-28.32,-7.324
1660049417,-34.668,-6.348,-29.785,-10.254
1660049417,-32.715,36.133,-29.297,-18.555
1660049417,-35.156,-20.508,-26.855,-17.578
1660049417,-40.039,-77.637,-34.668,-10.254
1660049417,-22.949,-40.527,-35.156,-19.043
1660049417,-11.719,-17.09,-39.551,-26.367
1660049417,-40.527,-39.062,-46.387,-28.32
1660049417,-57.129,-40.039,-36.133,-38.086
1660049417,-33.691,-18.066,-28.32,-31.738
1660049417,-11.23,-11.719,-28.32,-20.508
1660049417,-8.789,-41.504,-36.133,-6.348
1660049417,-37.598,-50.293,-41.504,-21.973
1660049417,-56.152,7.324,-36.133,-50.781
1660049417,-45.898,5.859,-47.852,-46.387
1660049417,-39.551,-39.062,-75.195,-46.387
1660049417,-26.855,-41.992,-80.078,-38.574
1660049417,-8.789,18.555,-53.223,-20.996
1660049417,-21.973,28.809,-54.199,-36.133
1660049417,-32.715,-7.812,-53.223,-33.691
1660049417,-57.129,-40.039,-36.133,-38.086
1660049417,-33.691,-18.066,-28.32,-31.738
1660049417,-11.23,-11.719,-28.32,-20.508
1660049417,-8.789,-41.504,-36.133,-6.348
1660049417,-37.598,-50.293,-41.504,-21.973
1660049417,-56.152,7.324,-36.133,-50.781
1660049417,-45.898,5.859,-47.852,-46.387
1660049417,-39.551,-39.062,-75.195,-46.387
1660049417,-26.855,-41.992,-80.078,-38.574
1660049417,-8.789,18.555,-53.223,-20.996
1660049417,-21.973,28.809,-54.199,-36.133
1660049417,-32.715,-7.812,-53.223,-33.691
1660049417,-19.043,-16.113,-51.27,-4.883
1660049417,-12.695,-13.184,-63.477,-2.441
1660049417,-14.16,-19.043,-61.523,-27.344
1660049417,-20.996,-26.855,-51.758,-36.621
1660049417,-15.625,-9.277,-50.781,-32.227
1660049417,3.418,52.734,-47.363,-12.207
1660049417,-3.906,3.906,-59.57,-10.742
1660049417,-19.043,-69.824,-74.219,-21.484
1660049417,-21.484,-45.41,-54.688,-17.578
1660049417,-22.949,11.23,-31.738,-20.996
1660049417,-6.836,-6.348,-29.785,-9.766
1660049417,8.301,-41.504,-42.48,10.254
1660049417,-19.043,-16.113,-51.27,-4.883
1660049417,-12.695,-13.184,-63.477,-2.441
1660049417,-14.16,-19.043,-61.523,-27.344
1660049417,-20.996,-26.855,-51.758,-36.621
1660049417,-15.625,-9.277,-50.781,-32.227
1660049417,3.418,52.734,-47.363,-12.207
1660049417,-3.906,3.906,-59.57,-10.742
1660049417,-19.043,-69.824,-74.219,-21.484
1660049417,-21.484,-45.41,-54.688,-17.578
1660049417,-22.949,11.23,-31.738,-20.996
1660049417,-6.836,-6.348,-29.785,-9.766
1660049417,8.301,-41.504,-42.48,10.254
1660049417,-12.207,-37.598,-48.828,0.488
1660049417,-41.504,-31.25,-41.016,-19.043
1660049417,-19.531,-15.137,-25.391,-20.996
1660049417,16.602,-17.09,-33.203,-19.531
1660049417,6.348,-21.973,-44.922,-21.484
1660049417,-3.906,1.465,-44.922,-26.855
1660049417,-28.32,-21.973,-38.574,-30.762
1660049417,-35.156,-44.922,-38.574,-20.02
1660049417,-31.25,-77.148,-57.617,-39.062
1660049417,-42.969,-129.883,-66.406,-38.574
1660049417,-23.438,-76.66,-59.082,-36.133
1660049417,-24.414,-26.855,-42.969,-48.34
1660049417,-12.207,-37.598,-48.828,0.488
1660049417,-41.504,-31.25,-41.016,-19.043
1660049417,-19.531,-15.137,-25.391,-20.996
1660049417,16.602,-17.09,-33.203,-19.531
1660049417,6.348,-21.973,-44.922,-21.484
1660049417,-3.906,1.465,-44.922,-26.855
1660049417,-28.32,-21.973,-38.574,-30.762
1660049417,-35.156,-44.922,-38.574,-20.02
1660049417,-31.25,-77.148,-57.617,-39.062
1660049417,-42.969,-129.883,-66.406,-38.574
1660049417,-23.438,-76.66,-59.082,-36.133
1660049417,-24.414,-26.855,-42.969,-48.34
1660049417,-12.207,-37.598,-48.828,0.488
1660049417,-41.504,-31.25,-41.016,-19.043
1660049417,-19.531,-15.137,-25.391,-20.996
1660049417,16.602,-17.09,-33.203,-19.531
1660049417,6.348,-21.973,-44.922,-21.484
1660049417,-3.906,1.465,-44.922,-26.855
1660049417,-28.32,-21.973,-38.574,-30.762
1660049417,-35.156,-44.922,-38.574,-20.02
1660049417,-31.25,-77.148,-57.617,-39.062
1660049417,-42.969,-129.883,-66.406,-38.574
1660049417,-23.438,-76.66,-59.082,-36.133
1660049417,-24.414,-26.855,-42.969,-48.34
1660049417,-29.297,-37.109,-26.367,-27.344
1660049417,-14.16,-17.578,-25.879,-17.578
1660049417,3.418,0.977,-31.738,-5.859
1660049417,-2.93,-5.371,-43.457,-8.301
1660049417,-23.438,-37.109,-47.852,-20.996
1660049417,-21.484,-3.906,-24.414,-5.371
1660049417,-6.348,-1.953,-16.602,10.742
1660049417,-4.395,-38.574,-40.527,-1.465
1660049417,-16.602,-14.16,-48.34,-11.23
1660049417,-21.484,-1.953,-32.227,-1.465
1660049417,-18.066,-10.254,-22.949,-5.371
1660049417,-23.926,-20.996,-32.715,-5.371
1660049417,-29.297,-37.109,-26.367,-27.344
1660049417,-14.16,-17.578,-25.879,-17.578
1660049417,3.418,0.977,-31.738,-5.859
1660049417,-2.93,-5.371,-43.457,-8.301
1660049417,-23.438,-37.109,-47.852,-20.996
1660049417,-21.484,-3.906,-24.414,-5.371
1660049417,-6.348,-1.953,-16.602,10.742
1660049417,-4.395,-38.574,-40.527,-1.465
1660049417,-16.602,-14.16,-48.34,-11.23
1660049417,-21.484,-1.953,-32.227,-1.465
1660049417,-18.066,-10.254,-22.949,-5.371
1660049417,-23.926,-20.996,-32.715,-5.371
1660049417,-12.695,-35.645,-40.527,0
1660049417,-2.93,-24.902,-38.086,2.441
1660049417,-20.508,-6.348,-41.016,7.324
1660049417,-36.133,-16.113,-43.945,-9.277
1660049417,-27.344,-34.18,-41.992,-8.301
1660049417,-7.324,-1.465,-32.715,13.184
1660049417,-11.23,-0.488,-34.18,18.555
1660049417,-44.922,-58.594,-47.852,-9.766
1660049417,-58.105,-54.688,-52.246,-27.344
1660049417,-37.598,-11.23,-28.809,-1.953
1660049417,-26.367,-24.414,-28.32,7.812
1660049417,-27.344,-47.363,-56.152,-7.812
1660049417,-12.695,-35.645,-40.527,0
1660049417,-2.93,-24.902,-38.086,2.441
1660049417,-20.508,-6.348,-41.016,7.324
1660049417,-36.133,-16.113,-43.945,-9.277
1660049417,-27.344,-34.18,-41.992,-8.301
1660049417,-7.324,-1.465,-32.715,13.184
1660049417,-11.23,-0.488,-34.18,18.555
1660049417,-44.922,-58.594,-47.852,-9.766
1660049417,-58.105,-54.688,-52.246,-27.344
1660049417,-37.598,-11.23,-28.809,-1.953
1660049417,-26.367,-24.414,-28.32,7.812
1660049417,-27.344,-47.363,-56.152,-7.812
1660049417,-12.695,-35.645,-40.527,0
1660049417,-2.93,-24.902,-38.086,2.441
1660049417,-20.508,-6.348,-41.016,7.324
1660049417,-36.133,-16.113,-43.945,-9.277
1660049417,-27.344,-34.18,-41.992,-8.301
1660049417,-7.324,-1.465,-32.715,13.184
1660049417,-11.23,-0.488,-34.18,18.555
1660049417,-44.922,-58.594,-47.852,-9.766
1660049417,-58.105,-54.688,-52.246,-27.344
1660049417,-37.598,-11.23,-28.809,-1.953
1660049417,-26.367,-24.414,-28.32,7.812
1660049417,-27.344,-47.363,-56.152,-7.812
1660049417,-41.504,-45.898,-51.27,-15.137
1660049417,-45.898,-16.113,-22.461,-1.953
1660049417,-36.133,-30.762,-21.973,-0.977
1660049417,-28.809,-41.992,-38.086,-5.859
1660049417,-20.996,-34.18,-43.945,-6.348
1660049417,-17.578,-9.766,-26.367,-5.371
1660049417,-36.133,-27.344,-24.414,-12.695
1660049417,-63.965,-56.152,-55.664,-40.527
1660049417,-40.527,-34.18,-46.387,-18.066
1660049417,-20.996,-22.461,-31.738,2.93
1660049417,-26.855,-30.273,-36.133,-15.137
1660049417,-43.457,-35.156,-30.273,-43.945
1660049417,-41.504,-45.898,-51.27,-15.137
1660049417,-45.898,-16.113,-22.461,-1.953
1660049417,-36.133,-30.762,-21.973,-0.977
1660049417,-28.809,-41.992,-38.086,-5.859
1660049417,-20.996,-34.18,-43.945,-6.348
1660049417,-17.578,-9.766,-26.367,-5.371
1660049417,-36.133,-27.344,-24.414,-12.695
1660049417,-63.965,-56.152,-55.664,-40.527
1660049417,-40.527,-34.18,-46.387,-18.066
1660049417,-20.996,-22.461,-31.738,2.93
1660049417,-26.855,-30.273,-36.133,-15.137
1660049417,-43.457,-35.156,-30.273,-43.945
1660049417,-40.039,-26.367,-17.09,-36.621
1660049417,-19.043,-30.762,-20.508,-6.836
1660049417,-21.484,-35.645,-32.715,-8.789
1660049417,-37.598,-34.668,-39.551,-30.762
1660049417,-42.969,-35.645,-36.621,-34.668
1660049417,-25.879,-23.926,-23.926,-15.625
1660049418,-31.738,-29.297,-33.691,-15.625
1660049418,-62.988,-41.504,-66.895,-59.57
1660049418,-42.48,-42.48,-46.387,-51.758
1660049418,-20.02,3.418,-10.254,-17.578
1660049418,-44.434,7.812,-32.227,-36.621
1660049418,-46.387,-36.133,-41.504,-17.578
1660049417,-40.039,-26.367,-17.09,-36.621
1660049417,-19.043,-30.762,-20.508,-6.836
1660049417,-21.484,-35.645,-32.715,-8.789
1660049417,-37.598,-34.668,-39.551,-30.762
1660049417,-42.969,-35.645,-36.621,-34.668
1660049417,-25.879,-23.926,-23.926,-15.625
1660049418,-31.738,-29.297,-33.691,-15.625
1660049418,-62.988,-41.504,-66.895,-59.57
1660049418,-42.48,-42.48,-46.387,-51.758
1660049418,-20.02,3.418,-10.254,-17.578
1660049418,-44.434,7.812,-32.227,-36.621
1660049418,-46.387,-36.133,-41.504,-17.578
1660049417,-40.039,-26.367,-17.09,-36.621
1660049417,-19.043,-30.762,-20.508,-6.836
1660049417,-21.484,-35.645,-32.715,-8.789
1660049417,-37.598,-34.668,-39.551,-30.762
1660049417,-42.969,-35.645,-36.621,-34.668
1660049417,-25.879,-23.926,-23.926,-15.625
1660049418,-31.738,-29.297,-33.691,-15.625
1660049418,-62.988,-41.504,-66.895,-59.57
1660049418,-42.48,-42.48,-46.387,-51.758
1660049418,-20.02,3.418,-10.254,-17.578
1660049418,-44.434,7.812,-32.227,-36.621
1660049418,-46.387,-36.133,-41.504,-17.578
1660049418,-13.184,-48.34,-29.785,1.953
1660049418,-17.09,-23.438,-29.297,-33.691
1660049418,-44.922,-18.555,-26.367,-46.875
1660049418,-41.992,-44.922,-29.785,-39.062
1660049418,-24.902,-36.133,-28.32,-16.602
1660049418,-22.949,-1.953,-29.297,-5.371
1660049418,-37.598,-0.488,-60.547,-27.832
1660049418,-29.297,-21.484,-39.551,-19.043
1660049418,-31.738,-50.781,-15.137,-15.137
1660049418,-30.762,-44.434,-22.949,-8.789
1660049418,-11.23,-21.973,-34.18,-5.859
1660049418,-21.973,-28.32,-45.898,-33.691
1660049418,-13.184,-48.34,-29.785,1.953
1660049418,-17.09,-23.438,-29.297,-33.691
1660049418,-44.922,-18.555,-26.367,-46.875
1660049418,-41.992,-44.922,-29.785,-39.062
1660049418,-24.902,-36.133,-28.32,-16.602
1660049418,-22.949,-1.953,-29.297,-5.371
1660049418,-37.598,-0.488,-60.547,-27.832
1660049418,-29.297,-21.484,-39.551,-19.043
1660049418,-31.738,-50.781,-15.137,-15.137
1660049418,-30.762,-44.434,-22.949,-8.789
1660049418,-11.23,-21.973,-34.18,-5.859
1660049418,-21.973,-28.32,-45.898,-33.691
1660049418,-13.184,-48.34,-29.785,1.953
1660049418,-17.09,-23.438,-29.297,-33.691
1660049418,-44.922,-18.555,-26.367,-46.875
1660049418,-41.992,-44.922,-29.785,-39.062
1660049418,-24.902,-36.133,-28.32,-16.602
1660049418,-22.949,-1.953,-29.297,-5.371
1660049418,-37.598,-0.488,-60.547,-27.832
1660049418,-29.297,-21.484,-39.551,-19.043
1660049418,-31.738,-50.781,-15.137,-15.137
1660049418,-30.762,-44.434,-22.949,-8.789
1660049418,-11.23,-21.973,-34.18,-5.859
1660049418,-21.973,-28.32,-45.898,-33.691
1660049418,-42.969,-34.668,-44.922,-47.363
1660049418,-61.523,-53.223,-27.832,-42.969
1660049418,-43.457,-39.551,-5.859,-3.418
1660049418,-17.578,-23.926,-12.207,13.184
1660049418,-35.645,-48.34,-40.039,-6.836
1660049418,-42.48,-35.156,-37.109,-21.973
1660049418,-66.406,-40.527,-27.832,-39.062
1660049418,-60.059,-47.363,-24.414,-19.531
1660049418,-33.203,-18.066,-22.949,1.953
1660049418,-43.457,-55.176,-29.785,-15.137
1660049418,-61.523,-102.539,-39.551,-41.016
1660049418,-56.641,-54.199,-31.738,-44.922
1660049418,-42.969,-34.668,-44.922,-47.363
1660049418,-61.523,-53.223,-27.832,-42.969
1660049418,-43.457,-39.551,-5.859,-3.418
1660049418,-17.578,-23.926,-12.207,13.184
1660049418,-35.645,-48.34,-40.039,-6.836
1660049418,-42.48,-35.156,-37.109,-21.973
1660049418,-66.406,-40.527,-27.832,-39.062
1660049418,-60.059,-47.363,-24.414,-19.531
1660049418,-33.203,-18.066,-22.949,1.953
1660049418,-43.457,-55.176,-29.785,-15.137
1660049418,-61.523,-102.539,-39.551,-41.016
1660049418,-56.641,-54.199,-31.738,-44.922
1660049418,-38.574,-33.203,-17.578,-19.043
1660049418,-32.227,-19.043,-16.602,-14.16
1660049418,-28.32,-15.625,-36.621,-15.625
1660049418,-33.691,-29.785,-43.945,-33.203
1660049418,-44.922,-29.785,-23.926,-38.574
1660049418,-35.645,10.254,-5.371,-15.137
1660049418,-36.133,-15.625,-20.996,-4.883
1660049418,-36.133,-62.5,-41.016,-20.02
1660049418,-45.41,-42.48,-41.016,-33.203
1660049418,-77.148,-45.41,-40.527,-56.641
1660049418,-53.711,-34.668,-25.391,-38.086
1660049418,-37.109,-36.133,-21.973,0.488
1660049418,-38.574,-33.203,-17.578,-19.043
1660049418,-32.227,-19.043,-16.602,-14.16
1660049418,-28.32,-15.625,-36.621,-15.625
1660049418,-33.691,-29.785,-43.945,-33.203
1660049418,-44.922,-29.785,-23.926,-38.574
1660049418,-35.645,10.254,-5.371,-15.137
1660049418,-36.133,-15.625,-20.996,-4.883
1660049418,-36.133,-62.5,-41.016,-20.02
1660049418,-45.41,-42.48,-41.016,-33.203
1660049418,-77.148,-45.41,-40.527,-56.641
1660049418,-53.711,-34.668,-25.391,-38.086
1660049418,-37.109,-36.133,-21.973,0.488
1660049418,-31.738,-28.32,-24.902,-13.184
1660049418,-21.973,-0.488,-19.043,-24.414
1660049418,-37.598,-20.508,-19.531,-19.043
1660049418,-28.32,-33.691,-6.348,-7.324
1660049418,-18.066,-13.184,-4.395,19.043
1660049418,-30.273,6.836,-13.184,11.719
1660049418,-46.387,-31.738,-23.438,-5.859
1660049418,-49.316,-58.105,-16.602,-11.719
1660049418,-62.5,-30.762,-27.344,-18.555
1660049418,-65.43,-27.344,-53.711,-0.488
1660049418,-33.203,-57.617,-29.785,12.695
1660049418,-41.504,-47.852,-19.043,-2.441
1660049418,-31.738,-28.32,-24.902,-13.184
1660049418,-21.973,-0.488,-19.043,-24.414
1660049418,-37.598,-20.508,-19.531,-19.043
1660049418,-28.32,-33.691,-6.348,-7.324
1660049418,-18.066,-13.184,-4.395,19.043
1660049418,-30.273,6.836,-13.184,11.719
1660049418,-46.387,-31.738,-23.438,-5.859
1660049418,-49.316,-58.105,-16.602,-11.719
1660049418,-62.5,-30.762,-27.344,-18.555
1660049418,-65.43,-27.344,-53.711,-0.488
1660049418,-33.203,-57.617,-29.785,12.695
1660049418,-41.504,-47.852,-19.043,-2.441
1660049418,-67.383,-48.34,-29.297,-18.555
1660049418,-46.387,-34.668,-8.789,-0.977
1660049418,-18.555,-32.227,-4.883,27.344
1660049418,-19.531,-49.316,-27.832,12.207
1660049418,-30.273,-41.016,-25.391,-4.883
1660049418,-38.086,-28.809,-2.93,11.719
1660049418,-35.645,-42.969,4.883,20.508
1660049418,-23.438,-62.5,-14.16,10.254
1660049418,-35.156,-87.402,-61.035,-10.254
1660049418,-47.852,-59.082,-50.781,-5.371
1660049418,-51.758,-23.438,-11.719,-2.441
1660049418,-52.734,-26.855,0.977,11.719
1660049418,-67.383,-48.34,-29.297,-18.555
1660049418,-46.387,-34.668,-8.789,-0.977
1660049418,-18.555,-32.227,-4.883,27.344
1660049418,-19.531,-49.316,-27.832,12.207
1660049418,-30.273,-41.016,-25.391,-4.883
1660049418,-38.086,-28.809,-2.93,11.719
1660049418,-35.645,-42.969,4.883,20.508
1660049418,-23.438,-62.5,-14.16,10.254
1660049418,-35.156,-87.402,-61.035,-10.254
1660049418,-47.852,-59.082,-50.781,-5.371
1660049418,-51.758,-23.438,-11.719,-2.441
1660049418,-52.734,-26.855,0.977,11.719
1660049418,-67.383,-48.34,-29.297,-18.555
1660049418,-46.387,-34.668,-8.789,-0.977
1660049418,-18.555,-32.227,-4.883,27.344
1660049418,-19.531,-49.316,-27.832,12.207
1660049418,-30.273,-41.016,-25.391,-4.883
1660049418,-38.086,-28.809,-2.93,11.719
1660049418,-35.645,-42.969,4.883,20.508
1660049418,-23.438,-62.5,-14.16,10.254
1660049418,-35.156,-87.402,-61.035,-10.254
1660049418,-47.852,-59.082,-50.781,-5.371
1660049418,-51.758,-23.438,-11.719,-2.441
1660049418,-52.734,-26.855,0.977,11.719
1660049418,-45.41,-39.551,-1.953,42.969
1660049418,-30.273,-35.156,-14.648,34.18
1660049418,-20.02,-25.391,-31.738,-4.883
1660049418,-32.715,-21.973,-25.879,-16.113
1660049418,-48.828,-31.738,-3.906,-0.977
1660049418,-43.457,-19.043,-0.977,25.391
1660049418,-38.574,-23.926,-19.531,33.691
1660049418,-57.129,-86.426,-54.199,-13.184
1660049418,-71.289,-93.75,-54.688,-46.387
1660049418,-48.34,-20.02,-6.836,-7.324
1660049418,-27.832,-20.996,-4.395,20.996
1660049418,-36.621,-67.871,-41.016,4.883
1660049418,-37.109,-59.57,-51.27,-7.324
1660049418,-36.133,-19.531,-29.297,-4.395
1660049418,-29.297,-18.066,-7.812,-4.883
1660049418,-18.066,-10.742,-11.23,23.438
1660049418,-34.18,-27.344,-23.438,37.109
1660049418,-32.227,-23.926,-27.832,13.672
1660049418,-41.016,-22.949,-38.086,-22.461
1660049418,-74.219,-71.777,-39.551,-38.574
1660049418,-57.617,-75.195,-21.973,-1.465
1660049418,-37.109,-37.109,-17.09,23.438
1660049418,-46.387,-22.949,-36.133,1.465
1660049418,-61.035,-58.594,-47.363,-25.391
1660049418,-37.109,-59.57,-51.27,-7.324
1660049418,-36.133,-19.531,-29.297,-4.395
1660049418,-29.297,-18.066,-7.812,-4.883
1660049418,-18.066,-10.742,-11.23,23.438
1660049418,-34.18,-27.344,-23.438,37.109
1660049418,-32.227,-23.926,-27.832,13.672
1660049418,-41.016,-22.949,-38.086,-22.461
1660049418,-74.219,-71.777,-39.551,-38.574
1660049418,-57.617,-75.195,-21.973,-1.465
1660049418,-37.109,-37.109,-17.09,23.438
1660049418,-46.387,-22.949,-36.133,1.465
1660049418,-61.035,-58.594,-47.363,-25.391
1660049418,-60.547,-42.48,-26.367,-30.762
1660049418,-44.434,-18.555,-14.16,8.301
1660049418,-33.203,-28.809,-22.949,34.18
1660049418,-25.391,-38.086,-38.574,-2.93
1660049418,-35.156,-31.738,-36.133,-22.949
1660049418,-44.434,5.371,-7.812,-10.742
1660049418,-60.059,-11.719,-25.879,-3.418
1660049418,-51.27,-35.156,-46.875,8.789
1660049418,-11.23,-26.367,-40.527,25.391
1660049418,-27.832,-36.133,-48.34,-4.395
1660049418,-58.105,-50.781,-27.832,-25.879
1660049418,-39.062,-48.828,-7.324,-0.977
1660049418,-60.547,-42.48,-26.367,-30.762
1660049418,-44.434,-18.555,-14.16,8.301
1660049418,-33.203,-28.809,-22.949,34.18
1660049418,-25.391,-38.086,-38.574,-2.93
1660049418,-35.156,-31.738,-36.133,-22.949
1660049418,-44.434,5.371,-7.812,-10.742
1660049418,-60.059,-11.719,-25.879,-3.418
1660049418,-51.27,-35.156,-46.875,8.789
1660049418,-11.23,-26.367,-40.527,25.391
1660049418,-27.832,-36.133,-48.34,-4.395
1660049418,-58.105,-50.781,-27.832,-25.879
1660049418,-39.062,-48.828,-7.324,-0.977
1660049418,-60.547,-42.48,-26.367,-30.762
1660049418,-44.434,-18.555,-14.16,8.301
1660049418,-33.203,-28.809,-22.949,34.18
1660049418,-25.391,-38.086,-38.574,-2.93
1660049418,-35.156,-31.738,-36.133,-22.949
1660049418,-44.434,5.371,-7.812,-10.742
1660049418,-60.059,-11.719,-25.879,-3.418
1660049418,-51.27,-35.156,-46.875,8.789
1660049418,-11.23,-26.367,-40.527,25.391
1660049418,-27.832,-36.133,-48.34,-4.395
1660049418,-58.105,-50.781,-27.832,-25.879
1660049418,-39.062,-48.828,-7.324,-0.977
1660049418,-9.766,-33.691,-10.742,27.344
1660049418,-7.324,-2.441,-22.461,21.484
1660049418,-28.809,-28.32,-44.434,-13.184
1660049418,-34.668,-33.691,-34.18,-22.461
1660049418,-31.738,-42.48,-16.602,7.324
1660049418,-38.574,4.395,-3.418,40.039
1660049418,-32.715,22.461,-28.32,32.715
1660049418,-26.367,-44.922,-46.875,-2.441
1660049418,-33.691,-60.547,-30.762,-15.625
1660049418,-29.785,-36.133,-11.719,8.301
1660049418,-11.719,-16.113,-2.441,40.527
1660049418,-6.836,-37.109,-21.973,44.434
1660049418,-9.766,-33.691,-10.742,27.344
1660049418,-7.324,-2.441,-22.461,21.484
1660049418,-28.809,-28.32,-44.434,-13.184
1660049418,-34.668,-33.691,-34.18,-22.461
1660049418,-31.738,-42.48,-16.602,7.324
1660049418,-38.574,4.395,-3.418,40.039
1660049418,-32.715,22.461,-28.32,32.715
1660049418,-26.367,-44.922,-46.875,-2.441
1660049418,-33.691,-60.547,-30.762,-15.625
1660049418,-29.785,-36.133,-11.719,8.301
1660049418,-11.719,-16.113,-2.441,40.527
1660049418,-6.836,-37.109,-21.973,44.434
1660049418,-19.043,-62.988,-46.875,2.441
1660049418,-24.414,-36.133,-28.809,-16.113
1660049418,-23.926,-22.461,-5.371,7.812
1660049418,-15.137,-24.414,-8.301,25.391
1660049418,8.789,11.23,-10.254,30.273
1660049418,-23.438,-24.414,-41.992,-9.277
1660049418,-78.613,-80.566,-66.895,-60.059
1660049418,-49.316,-63.477,-32.227,-45.41
1660049418,-16.602,-22.461,-9.277,-5.371
1660049418,-20.02,-18.066,-33.691,6.348
1660049418,-25.879,-27.832,-52.734,-19.043
1660049418,-38.086,-20.02,-38.086,-54.688
1660049418,-19.043,-62.988,-46.875,2.441
1660049418,-24.414,-36.133,-28.809,-16.113
1660049418,-23.926,-22.461,-5.371,7.812
1660049418,-15.137,-24.414,-8.301,25.391
1660049418,8.789,11.23,-10.254,30.273
1660049418,-23.438,-24.414,-41.992,-9.277
1660049418,-78.613,-80.566,-66.895,-60.059
1660049418,-49.316,-63.477,-32.227,-45.41
1660049418,-16.602,-22.461,-9.277,-5.371
1660049418,-20.02,-18.066,-33.691,6.348
1660049418,-25.879,-27.832,-52.734,-19.043
1660049418,-38.086,-20.02,-38.086,-54.688
1660049418,-39.551,-39.551,-24.414,-40.039
1660049418,-34.668,-43.945,-26.855,-15.137
1660049418,-21.484,-15.625,-25.391,0.977
1660049418,-21.484,-12.695,-29.785,-11.719
1660049418,-49.805,-24.414,-34.668,-55.176
1660049418,-51.27,5.371,-14.648,-56.152
1660049418,-20.508,3.418,-0.488,-9.766
1660049418,-1.953,-17.09,-7.812,27.832
1660049418,-35.156,-52.246,-38.086,-12.695
1660049418,-69.824,-82.031,-61.035,-55.664
1660049418,-60.059,-34.18,-34.668,-47.363
1660049418,-46.387,-23.926,-20.508,-39.551
1660049418,-39.551,-39.551,-24.414,-40.039
1660049418,-34.668,-43.945,-26.855,-15.137
1660049418,-21.484,-15.625,-25.391,0.977
1660049418,-21.484,-12.695,-29.785,-11.719
1660049418,-49.805,-24.414,-34.668,-55.176
1660049418,-51.27,5.371,-14.648,-56.152
1660049418,-20.508,3.418,-0.488,-9.766
1660049418,-1.953,-17.09,-7.812,27.832
1660049418,-35.156,-52.246,-38.086,-12.695
1660049418,-69.824,-82.031,-61.035,-55.664
1660049418,-60.059,-34.18,-34.668,-47.363
1660049418,-46.387,-23.926,-20.508,-39.551
1660049418,-27.832,-52.734,-38.574,-9.766
1660049418,-27.344,-32.715,-45.41,-10.742
1660049418,-34.668,-11.719,-38.086,-52.734
1660049418,-22.949,-26.855,-23.438,-50.781
1660049418,-20.02,-37.598,-6.348,-7.812
1660049418,-20.996,-1.465,-1.465,19.043
1660049418,-9.766,3.418,-20.996,4.395
1660049418,-29.297,-44.434,-46.875,-45.41
1660049418,-78.613,-113.77,-42.969,-63.477
1660049418,-81.055,-79.102,-27.832,-37.598
1660049418,-29.297,-5.371,-28.809,-6.836
1660049418,-17.578,-41.992,-47.852,-12.207
1660049418,-27.832,-52.734,-38.574,-9.766
1660049418,-27.344,-32.715,-45.41,-10.742
1660049418,-34.668,-11.719,-38.086,-52.734
1660049418,-22.949,-26.855,-23.438,-50.781
1660049418,-20.02,-37.598,-6.348,-7.812
1660049418,-20.996,-1.465,-1.465,19.043
1660049418,-9.766,3.418,-20.996,4.395
1660049418,-29.297,-44.434,-46.875,-45.41
1660049418,-78.613,-113.77,-42.969,-63.477
1660049418,-81.055,-79.102,-27.832,-37.598
1660049418,-29.297,-5.371,-28.809,-6.836
1660049418,-17.578,-41.992,-47.852,-12.207
1660049418,-27.832,-52.734,-38.574,-9.766
1660049418,-27.344,-32.715,-45.41,-10.742
1660049418,-34.668,-11.719,-38.086,-52.734
1660049418,-22.949,-26.855,-23.438,-50.781
1660049418,-20.02,-37.598,-6.348,-7.812
1660049418,-20.996,-1.465,-1.465,19.043
1660049418,-9.766,3.418,-20.996,4.395
1660049418,-29.297,-44.434,-46.875,-45.41
1660049418,-78.613,-113.77,-42.969,-63.477
1660049418,-81.055,-79.102,-27.832,-37.598
1660049418,-29.297,-5.371,-28.809,-6.836
1660049418,-17.578,-41.992,-47.852,-12.207
1660049418,-49.316,-86.426,-66.895,-74.707
1660049418,-45.898,-35.645,-38.574,-64.453
1660049418,-34.18,4.883,0.977,-7.324
1660049418,-31.738,-20.02,-5.859,2.93
1660049418,-32.715,-29.297,-26.855,-22.949
1660049418,-32.227,0.488,-29.785,-44.434
1660049418,-30.762,-18.555,-30.273,-37.598
1660049418,-45.898,-76.66,-25.391,-33.691
1660049418,-39.551,-106.445,-29.297,-16.113
1660049418,-12.207,-34.668,-30.273,2.441
1660049418,-8.789,-15.625,-36.621,-26.855
1660049418,-26.367,-24.902,-29.785,-67.383
1660049418,-49.316,-86.426,-66.895,-74.707
1660049418,-45.898,-35.645,-38.574,-64.453
1660049418,-34.18,4.883,0.977,-7.324
1660049418,-31.738,-20.02,-5.859,2.93
1660049418,-32.715,-29.297,-26.855,-22.949
1660049418,-32.227,0.488,-29.785,-44.434
1660049418,-30.762,-18.555,-30.273,-37.598
1660049418,-45.898,-76.66,-25.391,-33.691
1660049418,-39.551,-106.445,-29.297,-16.113
1660049418,-12.207,-34.668,-30.273,2.441
1660049418,-8.789,-15.625,-36.621,-26.855
1660049418,-26.367,-24.902,-29.785,-67.383
1660049418,-24.414,-5.371,0.977,-14.648
1660049418,3.418,8.789,4.883,36.133
1660049418,2.441,-11.23,-22.949,1.465
1660049418,-25.391,-25.879,-46.875,-30.762
1660049418,-35.645,-16.602,-40.527,-41.992
1660049418,-30.762,-17.09,-9.766,-17.578
1660049418,-22.461,-20.996,-1.465,23.438
1660049418,-36.621,-67.383,-39.551,4.883
1660049418,-35.156,-73.73,-59.57,-40.039
1660049418,-22.949,-19.531,-33.203,-50.293
1660049418,-36.621,-19.531,-20.508,-29.297
1660049418,-34.18,-60.059,-22.949,4.395
1660049418,-24.414,-5.371,0.977,-14.648
1660049418,3.418,8.789,4.883,36.133
1660049418,2.441,-11.23,-22.949,1.465
1660049418,-25.391,-25.879,-46.875,-30.762
1660049418,-35.645,-16.602,-40.527,-41.992
1660049418,-30.762,-17.09,-9.766,-17.578
1660049418,-22.461,-20.996,-1.465,23.438
1660049418,-36.621,-67.383,-39.551,4.883
1660049418,-35.156,-73.73,-59.57,-40.039
1660049418,-22.949,-19.531,-33.203,-50.293
1660049418,-36.621,-19.531,-20.508,-29.297
1660049418,-34.18,-60.059,-22.949,4.395
1660049418,-17.09,-45.898,-23.438,19.043
1660049418,-17.578,-8.789,-35.156,-25.391
1660049418,-31.738,-17.578,-39.062,-60.059
1660049418,-31.738,-23.926,-13.672,-36.621
1660049418,-22.461,-22.949,-3.418,18.555
1660049418,-9.277,2.441,-11.719,30.273
1660049418,-19.531,4.395,-32.715,-9.277
1660049418,-45.898,-23.926,-49.316,-37.109
1660049418,-53.223,-36.133,-29.297,-52.734
1660049418,-41.504,-27.344,-7.812,-4.883
1660049418,-23.438,-41.504,-22.461,30.273
1660049418,-21.484,-41.016,-43.945,-20.02
1660049418,-34.668,-38.086,-45.898,-59.57
1660049418,-44.922,-43.457,-30.762,-62.012
1660049418,-35.645,-16.113,-9.277,-10.254
1660049418,-25.879,-21.973,-19.043,21.973
1660049418,-31.25,-40.527,-43.457,-6.348
1660049418,-35.645,1.465,-39.551,-40.527
1660049418,-56.641,0,-33.691,-46.387
1660049418,-53.711,-24.902,-24.414,-17.09
1660049418,-29.297,-14.16,-14.648,7.812
1660049418,-35.156,-30.273,-32.227,0.977
1660049418,-52.246,-14.648,-54.199,-58.594
1660049418,-61.035,-3.418,-38.086,-74.707
1660049418,-34.668,-38.086,-45.898,-59.57
1660049418,-44.922,-43.457,-30.762,-62.012
1660049418,-35.645,-16.113,-9.277,-10.254
1660049418,-25.879,-21.973,-19.043,21.973
1660049418,-31.25,-40.527,-43.457,-6.348
1660049418,-35.645,1.465,-39.551,-40.527
1660049418,-56.641,0,-33.691,-46.387
1660049418,-53.711,-24.902,-24.414,-17.09
1660049418,-29.297,-14.16,-14.648,7.812
1660049418,-35.156,-30.273,-32.227,0.977
1660049418,-52.246,-14.648,-54.199,-58.594
1660049418,-61.035,-3.418,-38.086,-74.707
1660049418,-34.668,-38.086,-45.898,-59.57
1660049418,-44.922,-43.457,-30.762,-62.012
1660049418,-35.645,-16.113,-9.277,-10.254
1660049418,-25.879,-21.973,-19.043,21.973
1660049418,-31.25,-40.527,-43.457,-6.348
1660049418,-35.645,1.465,-39.551,-40.527
1660049418,-56.641,0,-33.691,-46.387
1660049418,-53.711,-24.902,-24.414,-17.09
1660049418,-29.297,-14.16,-14.648,7.812
1660049418,-35.156,-30.273,-32.227,0.977
1660049418,-52.246,-14.648,-54.199,-58.594
1660049418,-61.035,-3.418,-38.086,-74.707
1660049418,-34.668,-30.762,0.977,1.953
1660049418,-2.93,-19.043,-4.883,37.109
1660049418,-4.883,-21.484,-32.227,-13.184
1660049418,-25.879,-39.551,-41.504,-36.133
1660049418,-35.645,-47.852,-20.996,-30.273
1660049418,-35.156,-4.395,1.465,-14.16
1660049418,-43.945,-1.465,-29.297,9.766
1660049418,-31.25,-44.434,-50.293,7.812
1660049418,-22.461,-57.617,-51.27,-21.973
1660049418,-44.922,-56.641,-39.551,-44.922
1660049418,-44.922,-42.48,-16.602,-20.02
1660049418,-23.438,-31.738,-11.23,26.855
1660049418,-34.668,-30.762,0.977,1.953
1660049418,-2.93,-19.043,-4.883,37.109
1660049418,-4.883,-21.484,-32.227,-13.184
1660049418,-25.879,-39.551,-41.504,-36.133
1660049418,-35.645,-47.852,-20.996,-30.273
1660049418,-35.156,-4.395,1.465,-14.16
1660049418,-43.945,-1.465,-29.297,9.766
1660049418,-31.25,-44.434,-50.293,7.812
1660049418,-22.461,-57.617,-51.27,-21.973
1660049418,-44.922,-56.641,-39.551,-44.922
1660049418,-44.922,-42.48,-16.602,-20.02
1660049418,-23.438,-31.738,-11.23,26.855
1660049418,-18.555,-58.594,-31.25,28.809
1660049418,-21.973,-47.363,-42.969,-10.742
1660049418,-41.504,-34.668,-41.992,-45.898
1660049418,-47.852,-30.762,-15.625,-21.484
1660049418,-20.508,-21.973,0.977,17.09
1660049418,-13.672,-4.883,-20.996,17.578
1660049418,-28.809,-30.273,-54.199,-18.555
1660049418,-45.898,-71.777,-53.223,-50.293
1660049418,-47.363,-55.176,-27.832,-30.762
1660049418,-38.086,-24.902,-21.973,2.441
1660049418,-40.039,-30.273,-47.363,-2.93
1660049418,-31.25,-45.898,-63.965,-27.832
1660049418,-18.555,-58.594,-31.25,28.809
1660049418,-21.973,-47.363,-42.969,-10.742
1660049418,-41.504,-34.668,-41.992,-45.898
1660049418,-47.852,-30.762,-15.625,-21.484
1660049418,-20.508,-21.973,0.977,17.09
1660049418,-13.672,-4.883,-20.996,17.578
1660049418,-28.809,-30.273,-54.199,-18.555
1660049418,-45.898,-71.777,-53.223,-50.293
1660049418,-47.363,-55.176,-27.832,-30.762
1660049418,-38.086,-24.902,-21.973,2.441
1660049418,-40.039,-30.273,-47.363,-2.93
1660049418,-31.25,-45.898,-63.965,-27.832
1660049418,-18.555,-58.594,-31.25,28.809
1660049418,-21.973,-47.363,-42.969,-10.742
1660049418,-41.504,-34.668,-41.992,-45.898
1660049418,-47.852,-30.762,-15.625,-21.484
1660049418,-20.508,-21.973,0.977,17.09
1660049418,-13.672,-4.883,-20.996,17.578
1660049418,-28.809,-30.273,-54.199,-18.555
1660049418,-45.898,-71.777,-53.223,-50.293
1660049418,-47.363,-55.176,-27.832,-30.762
1660049418,-38.086,-24.902,-21.973,2.441
1660049418,-40.039,-30.273,-47.363,-2.93
1660049418,-31.25,-45.898,-63.965,-27.832
1660049418,-52.734,-73.73,-62.012,-62.5
1660049418,-62.012,-41.016,-30.762,-48.34
1660049418,-31.25,-5.371,-6.836,5.859
1660049418,-24.414,-24.902,-26.367,7.812
1660049418,-39.062,-28.809,-56.641,-37.598
1660049418,-60.059,-19.531,-62.988,-73.242
1660049418,-48.34,-35.645,-36.621,-45.898
1660049418,-29.785,-46.387,-16.602,3.906
1660049418,-29.297,-41.992,-27.344,18.066
1660049418,-44.434,-46.875,-59.082,-37.598
1660049418,-52.246,-38.574,-58.105,-68.359
1660049418,-45.898,-29.785,-28.32,-45.898
1660049418,-52.734,-73.73,-62.012,-62.5
1660049418,-62.012,-41.016,-30.762,-48.34
1660049418,-31.25,-5.371,-6.836,5.859
1660049418,-24.414,-24.902,-26.367,7.812
1660049418,-39.062,-28.809,-56.641,-37.598
1660049418,-60.059,-19.531,-62.988,-73.242
1660049418,-48.34,-35.645,-36.621,-45.898
1660049418,-29.785,-46.387,-16.602,3.906
1660049418,-29.297,-41.992,-27.344,18.066
1660049418,-44.434,-46.875,-59.082,-37.598
1660049418,-52.246,-38.574,-58.105,-68.359
1660049418,-45.898,-29.785,-28.32,-45.898
1660049418,-52.734,-73.73,-62.012,-62.5
1660049418,-62.012,-41.016,-30.762,-48.34
1660049418,-31.25,-5.371,-6.836,5.859
1660049418,-24.414,-24.902,-26.367,7.812
1660049418,-39.062,-28.809,-56.641,-37.598
1660049418,-60.059,-19.531,-62.988,-73.242
1660049418,-48.34,-35.645,-36.621,-45.898
1660049418,-29.785,-46.387,-16.602,3.906
1660049418,-29.297,-41.992,-27.344,18.066
1660049418,-44.434,-46.875,-59.082,-37.598
1660049418,-52.246,-38.574,-58.105,-68.359
1660049418,-45.898,-29.785,-28.32,-45.898
1660049418,-35.156,-28.809,-14.16,-14.648
1660049418,-39.551,-30.762,-27.344,2.441
1660049418,-39.062,-23.438,-44.434,-22.949
1660049418,-49.805,-35.645,-54.688,-61.523
1660049418,-62.012,-35.645,-34.18,-59.082
1660049418,-50.781,-8.789,-6.836,-20.996
1660049418,-34.668,-20.02,-21.484,-11.719
1660049418,-35.156,-46.875,-49.805,-34.18
1660049418,-66.406,-84.961,-63.965,-64.453
1660049418,-90.332,-91.309,-48.34,-87.891
1660049418,-50.781,-59.082,-19.043,-36.133
1660049418,-20.02,-26.855,-9.766,18.066
1660049418,-35.156,-28.809,-14.16,-14.648
1660049418,-39.551,-30.762,-27.344,2.441
1660049418,-39.062,-23.438,-44.434,-22.949
1660049418,-49.805,-35.645,-54.688,-61.523
1660049418,-62.012,-35.645,-34.18,-59.082
1660049418,-50.781,-8.789,-6.836,-20.996
1660049418,-34.668,-20.02,-21.484,-11.719
1660049418,-35.156,-46.875,-49.805,-34.18
1660049418,-66.406,-84.961,-63.965,-64.453
1660049418,-90.332,-91.309,-48.34,-87.891
1660049418,-50.781,-59.082,-19.043,-36.133
1660049418,-20.02,-26.855,-9.766,18.066
1660049418,-35.156,-28.809,-14.16,-14.648
1660049418,-39.551,-30.762,-27.344,2.441
1660049418,-39.062,-23.438,-44.434,-22.949
1660049418,-49.805,-35.645,-54.688,-61.523
1660049418,-62.012,-35.645,-34.18,-59.082
1660049418,-50.781,-8.789,-6.836,-20.996
1660049418,-34.668,-20.02,-21.484,-11.719
1660049418,-35.156,-46.875,-49.805,-34.18
1660049418,-66.406,-84.961,-63.965,-64.453
1660049418,-90.332,-91.309,-48.34,-87.891
1660049418,-50.781,-59.082,-19.043,-36.133
1660049418,-20.02,-26.855,-9.766,18.066
1660049418,-28.32,-13.184,-27.832,0.977
1660049418,-34.668,-14.648,-44.434,-41.016
1660049418,-44.922,-27.344,-32.715,-55.176
1660049418,-30.762,-2.441,-9.277,-12.207
1660049418,-16.113,-7.812,-17.578,23.926
1660049418,-19.043,1.465,-27.832,7.324
1660049418,-12.207,-24.902,-40.527,-24.902
1660049418,-35.645,-49.805,-39.551,-56.152
1660049418,-67.383,-15.625,-34.18,-46.875
1660049419,-43.457,-16.602,-23.438,10.254
1660049419,-18.066,-25.879,-27.832,8.789
1660049419,-20.508,-32.227,-49.805,-40.039
1660049418,-28.32,-13.184,-27.832,0.977
1660049418,-34.668,-14.648,-44.434,-41.016
1660049418,-44.922,-27.344,-32.715,-55.176
1660049418,-30.762,-2.441,-9.277,-12.207
1660049418,-16.113,-7.812,-17.578,23.926
1660049418,-19.043,1.465,-27.832,7.324
1660049418,-12.207,-24.902,-40.527,-24.902
1660049418,-35.645,-49.805,-39.551,-56.152
1660049418,-67.383,-15.625,-34.18,-46.875
1660049419,-43.457,-16.602,-23.438,10.254
1660049419,-18.066,-25.879,-27.832,8.789
1660049419,-20.508,-32.227,-49.805,-40.039
1660049418,-28.32,-13.184,-27.832,0.977
1660049418,-34.668,-14.648,-44.434,-41.016
1660049418,-44.922,-27.344,-32.715,-55.176
1660049418,-30.762,-2.441,-9.277,-12.207
1660049418,-16.113,-7.812,-17.578,23.926
1660049418,-19.043,1.465,-27.832,7.324
1660049418,-12.207,-24.902,-40.527,-24.902
1660049418,-35.645,-49.805,-39.551,-56.152
1660049418,-67.383,-15.625,-34.18,-46.875
1660049419,-43.457,-16.602,-23.438,10.254
1660049419,-18.066,-25.879,-27.832,8.789
1660049419,-20.508,-32.227,-49.805,-40.039
1660049419,-39.062,-43.945,-36.621,-67.383
1660049419,-32.715,-17.578,0.488,-31.738
1660049419,-6.836,-9.766,-3.418,6.348
1660049419,-4.395,-37.109,-35.645,-23.438
1660049419,-15.625,-52.734,-59.082,-59.082
1660049419,-41.016,-29.785,-42.48,-71.777
1660049419,-46.875,-22.949,-9.766,-46.875
1660049419,-46.875,-60.059,-17.09,-18.066
1660049419,-36.133,-41.016,-31.738,-24.414
1660049419,-21.973,-15.625,-39.062,-38.574
1660049419,-50.293,-37.109,-46.387,-79.59
1660049419,-80.078,-84.961,-41.504,-83.984
1660049419,-39.062,-43.945,-36.621,-67.383
1660049419,-32.715,-17.578,0.488,-31.738
1660049419,-6.836,-9.766,-3.418,6.348
1660049419,-4.395,-37.109,-35.645,-23.438
1660049419,-15.625,-52.734,-59.082,-59.082
1660049419,-41.016,-29.785,-42.48,-71.777
1660049419,-46.875,-22.949,-9.766,-46.875
1660049419,-46.875,-60.059,-17.09,-18.066
1660049419,-36.133,-41.016,-31.738,-24.414
1660049419,-21.973,-15.625,-39.062,-38.574
1660049419,-50.293,-37.109,-46.387,-79.59
1660049419,-80.078,-84.961,-41.504,-83.984
1660049419,-74.707,-94.727,-32.715,-58.105
1660049419,-54.688,-42.969,-30.762,-43.945
1660049419,-60.547,-48.828,-53.711,-69.824
1660049419,-65.918,-58.594,-58.105,-103.516
1660049419,-56.152,-31.738,-32.227,-87.891
1660049419,-31.25,16.602,-2.441,-28.32
1660049419,-25.879,-11.719,-31.738,-11.719
1660049419,-53.711,-69.336,-80.566,-69.336
1660049419,-62.012,-43.457,-65.918,-95.215
1660049419,-54.199,-20.996,-32.227,-76.172
1660049419,-41.992,-28.32,-19.531,-32.715
1660049419,-33.691,-31.738,-32.227,-9.766
1660049419,-36.133,-51.758,-63.965,-47.852
1660049419,-61.035,-26.367,-59.57,-72.266
1660049419,-73.242,-21.973,-38.574,-55.176
1660049419,-47.363,-59.082,-26.367,-11.719
1660049419,-13.184,-26.367,-16.602,10.254
1660049419,-10.742,8.789,-35.645,-20.996
1660049419,-52.246,-50.293,-73.73,-73.242
1660049419,-73.73,-90.82,-66.895,-79.59
1660049419,-39.551,-33.203,-13.672,-23.926
1660049419,-11.23,-10.254,-8.301,10.742
1660049419,-22.461,-72.754,-61.523,-23.438
1660049419,-43.945,-65.918,-65.918,-62.012
1660049419,-36.133,-51.758,-63.965,-47.852
1660049419,-61.035,-26.367,-59.57,-72.266
1660049419,-73.242,-21.973,-38.574,-55.176
1660049419,-47.363,-59.082,-26.367,-11.719
1660049419,-13.184,-26.367,-16.602,10.254
1660049419,-10.742,8.789,-35.645,-20.996
1660049419,-52.246,-50.293,-73.73,-73.242
1660049419,-73.73,-90.82,-66.895,-79.59
1660049419,-39.551,-33.203,-13.672,-23.926
1660049419,-11.23,-10.254,-8.301,10.742
1660049419,-22.461,-72.754,-61.523,-23.438
1660049419,-43.945,-65.918,-65.918,-62.012
1660049419,-36.133,-51.758,-63.965,-47.852
1660049419,-61.035,-26.367,-59.57,-72.266
1660049419,-73.242,-21.973,-38.574,-55.176
1660049419,-47.363,-59.082,-26.367,-11.719
1660049419,-13.184,-26.367,-16.602,10.254
1660049419,-10.742,8.789,-35.645,-20.996
1660049419,-52.246,-50.293,-73.73,-73.242
1660049419,-73.73,-90.82,-66.895,-79.59
1660049419,-39.551,-33.203,-13.672,-23.926
1660049419,-11.23,-10.254,-8.301,10.742
1660049419,-22.461,-72.754,-61.523,-23.438
1660049419,-43.945,-65.918,-65.918,-62.012
1660049419,-36.621,-25.879,-22.461,-48.828
1660049419,-32.227,-24.902,-7.812,-14.16
1660049419,-22.949,-24.902,-19.531,14.16
1660049419,-11.23,-32.715,-45.898,4.883
1660049419,-22.949,-28.32,-46.387,-29.785
1660049419,-36.621,-1.465,-23.926,-49.316
1660049419,-80.078,-89.355,-49.805,-58.594
1660049419,-56.152,-104.004,-46.387,-10.742
1660049419,-11.23,-32.227,-25.391,14.16
1660049419,-20.02,-11.719,-37.109,-21.484
1660049419,-27.344,-21.484,-31.738,-43.457
1660049419,-27.832,-33.203,-4.395,-14.16
1660049419,-36.621,-25.879,-22.461,-48.828
1660049419,-32.227,-24.902,-7.812,-14.16
1660049419,-22.949,-24.902,-19.531,14.16
1660049419,-11.23,-32.715,-45.898,4.883
1660049419,-22.949,-28.32,-46.387,-29.785
1660049419,-36.621,-1.465,-23.926,-49.316
1660049419,-80.078,-89.355,-49.805,-58.594
1660049419,-56.152,-104.004,-46.387,-10.742
1660049419,-11.23,-32.227,-25.391,14.16
1660049419,-20.02,-11.719,-37.109,-21.484
1660049419,-27.344,-21.484,-31.738,-43.457
1660049419,-27.832,-33.203,-4.395,-14.16
1660049419,-18.555,-24.414,0.977,19.531
1660049419,-10.254,-11.23,-18.555,15.137
1660049419,-18.066,-26.855,-36.133,-19.043
1660049419,-23.438,-25.879,-21.973,-45.898
1660049419,-18.555,-6.836,9.766,-22.461
1660049419,-29.785,-9.766,-1.465,1.465
1660049419,-28.809,-42.969,-33.691,6.836
1660049419,-14.16,-57.617,-40.527,-17.09
1660049419,-27.832,-20.508,-30.273,-52.246
1660049419,-52.734,-51.758,-32.715,-47.852
1660049419,-54.688,-91.309,-43.457,-18.066
1660049419,-20.02,-36.133,-24.414,17.578
1660049419,-18.555,-24.414,0.977,19.531
1660049419,-10.254,-11.23,-18.555,15.137
1660049419,-18.066,-26.855,-36.133,-19.043
1660049419,-23.438,-25.879,-21.973,-45.898
1660049419,-18.555,-6.836,9.766,-22.461
1660049419,-29.785,-9.766,-1.465,1.465
1660049419,-28.809,-42.969,-33.691,6.836
1660049419,-14.16,-57.617,-40.527,-17.09
1660049419,-27.832,-20.508,-30.273,-52.246
1660049419,-52.734,-51.758,-32.715,-47.852
1660049419,-54.688,-91.309,-43.457,-18.066
1660049419,-20.02,-36.133,-24.414,17.578
1660049419,-18.555,-24.414,0.977,19.531
1660049419,-10.254,-11.23,-18.555,15.137
1660049419,-18.066,-26.855,-36.133,-19.043
1660049419,-23.438,-25.879,-21.973,-45.898
1660049419,-18.555,-6.836,9.766,-22.461
1660049419,-29.785,-9.766,-1.465,1.465
1660049419,-28.809,-42.969,-33.691,6.836
1660049419,-14.16,-57.617,-40.527,-17.09
1660049419,-27.832,-20.508,-30.273,-52.246
1660049419,-52.734,-51.758,-32.715,-47.852
1660049419,-54.688,-91.309,-43.457,-18.066
1660049419,-20.02,-36.133,-24.414,17.578
1660049419,-2.441,-16.113,-29.297,1.465
1660049419,-16.113,-22.949,-30.762,-35.645
1660049419,-23.926,-10.254,-4.395,-25.391
1660049419,3.418,1.953,12.207,22.949
1660049419,12.695,-11.23,-13.672,31.738
1660049419,-4.883,-25.391,-49.805,-5.859
1660049419,-14.648,-34.668,-46.387,-47.852
1660049419,-10.254,-35.156,-11.23,-34.18
1660049419,3.906,-32.715,6.348,23.438
1660049419,-21.484,-43.945,-25.879,6.348
1660049419,-24.414,-17.578,-46.875,-30.273
1660049419,-17.09,-4.883,-33.691,-33.691
1660049419,-2.441,-16.113,-29.297,1.465
1660049419,-16.113,-22.949,-30.762,-35.645
1660049419,-23.926,-10.254,-4.395,-25.391
1660049419,3.418,1.953,12.207,22.949
1660049419,12.695,-11.23,-13.672,31.738
1660049419,-4.883,-25.391,-49.805,-5.859
1660049419,-14.648,-34.668,-46.387,-47.852
1660049419,-10.254,-35.156,-11.23,-34.18
1660049419,3.906,-32.715,6.348,23.438
1660049419,-21.484,-43.945,-25.879,6.348
1660049419,-24.414,-17.578,-46.875,-30.273
1660049419,-17.09,-4.883,-33.691,-33.691
1660049419,-2.441,-16.113,-29.297,1.465
1660049419,-16.113,-22.949,-30.762,-35.645
1660049419,-23.926,-10.254,-4.395,-25.391
1660049419,3.418,1.953,12.207,22.949
1660049419,12.695,-11.23,-13.672,31.738
1660049419,-4.883,-25.391,-49.805,-5.859
1660049419,-14.648,-34.668,-46.387,-47.852
1660049419,-10.254,-35.156,-11.23,-34.18
1660049419,3.906,-32.715,6.348,23.438
1660049419,-21.484,-43.945,-25.879,6.348
1660049419,-24.414,-17.578,-46.875,-30.273
1660049419,-17.09,-4.883,-33.691,-33.691
1660049419,-37.598,-36.133,-23.438,-44.922
1660049419,-34.18,-33.203,-13.672,-21.484
1660049419,-8.301,-18.066,-15.137,19.043
1660049419,5.371,-39.062,-41.992,5.859
1660049419,-5.371,-29.297,-47.852,-33.691
1660049419,-16.113,7.812,-16.113,-30.762
1660049419,-15.625,-16.113,-2.93,13.184
1660049419,5.859,-38.086,-18.555,32.715
1660049419,-10.742,-51.27,-63.965,-11.719
1660049419,-39.062,-54.199,-79.59,-58.105
1660049419,-15.137,-37.598,-34.668,-33.691
1660049419,-16.113,-34.668,-12.695,10.254
1660049419,-37.598,-36.133,-23.438,-44.922
1660049419,-34.18,-33.203,-13.672,-21.484
1660049419,-8.301,-18.066,-15.137,19.043
1660049419,5.371,-39.062,-41.992,5.859
1660049419,-5.371,-29.297,-47.852,-33.691
1660049419,-16.113,7.812,-16.113,-30.762
1660049419,-15.625,-16.113,-2.93,13.184
1660049419,5.859,-38.086,-18.555,32.715
1660049419,-10.742,-51.27,-63.965,-11.719
1660049419,-39.062,-54.199,-79.59,-58.105
1660049419,-15.137,-37.598,-34.668,-33.691
1660049419,-16.113,-34.668,-12.695,10.254
1660049419,-20.508,-33.691,-20.996,28.32
1660049419,-9.277,-22.461,-36.621,12.695
1660049419,-20.996,-6.348,-38.086,-23.926
1660049419,-43.945,-41.504,-27.832,-48.34
1660049419,-61.523,-80.078,-22.461,-35.645
1660049419,-20.508,-13.184,-0.977,18.066
1660049419,6.348,-2.441,-19.043,10.742
1660049419,-12.695,-43.945,-47.363,-36.133
1660049419,-55.664,-99.609,-48.828,-75.684
1660049419,-33.203,-41.504,-4.883,-35.645
1660049419,3.418,8.789,11.23,33.203
1660049419,-0.977,-19.043,-18.555,26.367
1660049419,-20.508,-33.691,-20.996,28.32
1660049419,-9.277,-22.461,-36.621,12.695
1660049419,-20.996,-6.348,-38.086,-23.926
1660049419,-43.945,-41.504,-27.832,-48.34
1660049419,-61.523,-80.078,-22.461,-35.645
1660049419,-20.508,-13.184,-0.977,18.066
1660049419,6.348,-2.441,-19.043,10.742
1660049419,-12.695,-43.945,-47.363,-36.133
1660049419,-55.664,-99.609,-48.828,-75.684
1660049419,-33.203,-41.504,-4.883,-35.645
1660049419,3.418,8.789,11.23,33.203
1660049419,-0.977,-19.043,-18.555,26.367
1660049419,-20.508,-33.691,-20.996,28.32
1660049419,-9.277,-22.461,-36.621,12.695
1660049419,-20.996,-6.348,-38.086,-23.926
1660049419,-43.945,-41.504,-27.832,-48.34
1660049419,-61.523,-80.078,-22.461,-35.645
1660049419,-20.508,-13.184,-0.977,18.066
1660049419,6.348,-2.441,-19.043,10.742
1660049419,-12.695,-43.945,-47.363,-36.133
1660049419,-55.664,-99.609,-48.828,-75.684
1660049419,-33.203,-41.504,-4.883,-35.645
1660049419,3.418,8.789,11.23,33.203
1660049419,-0.977,-19.043,-18.555,26.367
1660049419,-15.137,-26.855,-37.598,-17.09
1660049419,-21.484,-4.395,-28.809,-41.016
1660049419,-13.672,1.465,-4.883,-17.09
1660049419,-6.836,-13.184,3.906,20.996
1660049419,4.883,-24.414,-20.996,20.02
1660049419,-7.324,3.906,-43.457,-27.832
1660049419,-36.621,9.277,-36.133,-50.781
1660049419,-60.547,-92.285,-32.227,-45.41
1660049419,-62.5,-104.004,-36.621,-24.414
1660049419,-9.277,-12.695,-27.344,23.438
1660049419,-10.742,-28.809,-49.805,-13.184
1660049419,-47.852,-27.832,-57.129,-60.547
1660049419,-15.137,-26.855,-37.598,-17.09
1660049419,-21.484,-4.395,-28.809,-41.016
1660049419,-13.672,1.465,-4.883,-17.09
1660049419,-6.836,-13.184,3.906,20.996
1660049419,4.883,-24.414,-20.996,20.02
1660049419,-7.324,3.906,-43.457,-27.832
1660049419,-36.621,9.277,-36.133,-50.781
1660049419,-60.547,-92.285,-32.227,-45.41
1660049419,-62.5,-104.004,-36.621,-24.414
1660049419,-9.277,-12.695,-27.344,23.438
1660049419,-10.742,-28.809,-49.805,-13.184
1660049419,-47.852,-27.832,-57.129,-60.547
1660049419,-30.273,-17.578,-20.02,-37.109
1660049419,-9.766,3.418,2.441,4.395
1660049419,-10.742,-2.441,-20.996,9.766
1660049419,-16.113,-13.184,-47.852,-16.113
1660049419,-31.738,-19.531,-46.875,-52.734
1660049419,-31.25,16.113,-11.23,-50.293
1660049419,-34.18,-3.418,-10.254,-9.277
1660049419,-57.617,-86.914,-70.801,-38.086
1660049419,-48.34,-45.898,-66.406,-55.176
1660049419,-44.922,-29.785,-41.992,-59.082
1660049419,-59.082,-45.41,-31.738,-60.059
1660049419,-50.293,-31.25,-18.555,-30.762
1660049419,-30.273,-17.578,-20.02,-37.109
1660049419,-9.766,3.418,2.441,4.395
1660049419,-10.742,-2.441,-20.996,9.766
1660049419,-16.113,-13.184,-47.852,-16.113
1660049419,-31.738,-19.531,-46.875,-52.734
1660049419,-31.25,16.113,-11.23,-50.293
1660049419,-34.18,-3.418,-10.254,-9.277
1660049419,-57.617,-86.914,-70.801,-38.086
1660049419,-48.34,-45.898,-66.406,-55.176
1660049419,-44.922,-29.785,-41.992,-59.082
1660049419,-59.082,-45.41,-31.738,-60.059
1660049419,-50.293,-31.25,-18.555,-30.762
1660049419,-30.273,-17.578,-20.02,-37.109
1660049419,-9.766,3.418,2.441,4.395
1660049419,-10.742,-2.441,-20.996,9.766
1660049419,-16.113,-13.184,-47.852,-16.113
1660049419,-31.738,-19.531,-46.875,-52.734
1660049419,-31.25,16.113,-11.23,-50.293
1660049419,-34.18,-3.418,-10.254,-9.277
1660049419,-57.617,-86.914,-70.801,-38.086
1660049419,-48.34,-45.898,-66.406,-55.176
1660049419,-44.922,-29.785,-41.992,-59.082
1660049419,-59.082,-45.41,-31.738,-60.059
1660049419,-50.293,-31.25,-18.555,-30.762
1660049419,-35.156,-34.668,-23.926,0.977
1660049419,-32.227,-20.02,-40.527,-12.695
1660049419,-34.18,-6.348,-47.363,-51.27
1660049419,-50.293,-19.043,-26.367,-55.176
1660049419,-31.25,-11.23,0,-14.16
1660049419,0.488,16.602,-1.465,19.043
1660049419,-29.785,-43.457,-50.781,-19.531
1660049419,-56.152,-104.004,-82.031,-69.336
1660049419,-31.25,-34.668,-31.25,-58.105
1660049419,-25.391,11.23,5.371,-9.766
1660049419,-26.855,-60.547,-23.438,3.906
1660049419,-32.227,-54.688,-48.828,-21.973
1660049419,-35.156,-34.668,-23.926,0.977
1660049419,-32.227,-20.02,-40.527,-12.695
1660049419,-34.18,-6.348,-47.363,-51.27
1660049419,-50.293,-19.043,-26.367,-55.176
1660049419,-31.25,-11.23,0,-14.16
1660049419,0.488,16.602,-1.465,19.043
1660049419,-29.785,-43.457,-50.781,-19.531
1660049419,-56.152,-104.004,-82.031,-69.336
1660049419,-31.25,-34.668,-31.25,-58.105
1660049419,-25.391,11.23,5.371,-9.766
1660049419,-26.855,-60.547,-23.438,3.906
1660049419,-32.227,-54.688,-48.828,-21.973
1660049419,-35.156,-34.668,-23.926,0.977
1660049419,-32.227,-20.02,-40.527,-12.695
1660049419,-34.18,-6.348,-47.363,-51.27
1660049419,-50.293,-19.043,-26.367,-55.176
1660049419,-31.25,-11.23,0,-14.16
1660049419,0.488,16.602,-1.465,19.043
1660049419,-29.785,-43.457,-50.781,-19.531
1660049419,-56.152,-104.004,-82.031,-69.336
1660049419,-31.25,-34.668,-31.25,-58.105
1660049419,-25.391,11.23,5.371,-9.766
1660049419,-26.855,-60.547,-23.438,3.906
1660049419,-32.227,-54.688,-48.828,-21.973
1660049419,-37.109,-30.273,-51.758,-50.781
1660049419,-40.527,-34.668,-29.785,-58.594
1660049419,-50.781,-21.973,-16.113,-36.621
1660049419,-30.273,-16.113,-13.672,2.441
1660049419,-6.836,-10.254,-31.25,8.301
1660049419,-21.484,-2.441,-50.293,-34.18
1660049419,-70.801,-77.637,-62.988,-86.426
1660049419,-60.059,-68.359,-23.926,-45.898
1660049419,-20.02,-20.508,-7.812,23.438
1660049419,-11.719,-3.418,-31.738,24.902
1660049419,-28.809,-0.977,-49.805,-36.133
1660049419,-37.109,-11.23,-36.621,-58.594
1660049419,-37.109,-30.273,-51.758,-50.781
1660049419,-40.527,-34.668,-29.785,-58.594
1660049419,-50.781,-21.973,-16.113,-36.621
1660049419,-30.273,-16.113,-13.672,2.441
1660049419,-6.836,-10.254,-31.25,8.301
1660049419,-21.484,-2.441,-50.293,-34.18
1660049419,-70.801,-77.637,-62.988,-86.426
1660049419,-60.059,-68.359,-23.926,-45.898
1660049419,-20.02,-20.508,-7.812,23.438
1660049419,-11.719,-3.418,-31.738,24.902
1660049419,-28.809,-0.977,-49.805,-36.133
1660049419,-37.109,-11.23,-36.621,-58.594
1660049419,-37.109,-30.273,-51.758,-50.781
1660049419,-40.527,-34.668,-29.785,-58.594
1660049419,-50.781,-21.973,-16.113,-36.621
1660049419,-30.273,-16.113,-13.672,2.441
1660049419,-6.836,-10.254,-31.25,8.301
1660049419,-21.484,-2.441,-50.293,-34.18
1660049419,-70.801,-77.637,-62.988,-86.426
1660049419,-60.059,-68.359,-23.926,-45.898
1660049419,-20.02,-20.508,-7.812,23.438
1660049419,-11.719,-3.418,-31.738,24.902
1660049419,-28.809,-0.977,-49.805,-36.133
1660049419,-37.109,-11.23,-36.621,-58.594
1660049419,-32.227,-16.113,-5.371,-21.973
1660049419,-25.879,-18.555,-8.301,7.812
1660049419,-16.113,1.953,-24.414,10.254
1660049419,-24.902,-37.598,-52.734,-32.227
1660049419,-17.578,-41.504,-40.527,-54.199
1660049419,-26.855,0,-13.184,-38.086
1660049419,-51.27,-27.832,-32.227,-21.973
1660049419,7.812,-25.879,-45.41,17.09
1660049419,34.668,-5.859,-42.48,10.742
1660049419,-33.203,12.207,-28.32,-59.082
1660049419,-82.031,-20.508,-3.906,-69.336
1660049419,-62.012,-35.156,16.113,-16.602
1660049419,-32.227,-16.113,-5.371,-21.973
1660049419,-25.879,-18.555,-8.301,7.812
1660049419,-16.113,1.953,-24.414,10.254
1660049419,-24.902,-37.598,-52.734,-32.227
1660049419,-17.578,-41.504,-40.527,-54.199
1660049419,-26.855,0,-13.184,-38.086
1660049419,-51.27,-27.832,-32.227,-21.973
1660049419,7.812,-25.879,-45.41,17.09
1660049419,34.668,-5.859,-42.48,10.742
1660049419,-33.203,12.207,-28.32,-59.082
1660049419,-82.031,-20.508,-3.906,-69.336
1660049419,-62.012,-35.156,16.113,-16.602
1660049419,-32.227,-16.113,-5.371,-21.973
1660049419,-25.879,-18.555,-8.301,7.812
1660049419,-16.113,1.953,-24.414,10.254
1660049419,-24.902,-37.598,-52.734,-32.227
1660049419,-17.578,-41.504,-40.527,-54.199
1660049419,-26.855,0,-13.184,-38.086
1660049419,-51.27,-27.832,-32.227,-21.973
1660049419,7.812,-25.879,-45.41,17.09
1660049419,34.668,-5.859,-42.48,10.742
1660049419,-33.203,12.207,-28.32,-59.082
1660049419,-82.031,-20.508,-3.906,-69.336
1660049419,-62.012,-35.156,16.113,-16.602
1660049419,-52.734,-45.41,-1.465,-11.719
1660049419,-76.66,-42.969,-25.391,-55.664
1660049419,-80.078,-34.18,-16.113,-83.496
1660049419,-81.543,-52.246,10.254,-68.359
1660049419,-69.824,-43.945,19.531,-28.32
1660049419,-51.27,-24.902,-3.906,-18.555
1660049419,-49.316,-49.316,-36.133,-39.062
1660049419,-49.805,-62.012,-34.668,-50.293
1660049419,-52.734,-79.59,-11.23,-46.387
1660049419,-76.172,-145.508,-20.02,-37.109
1660049419,-50.293,-80.078,-14.648,4.883
1660049419,-24.902,-10.742,-17.578,4.395
1660049419,-52.734,-45.41,-1.465,-11.719
1660049419,-76.66,-42.969,-25.391,-55.664
1660049419,-80.078,-34.18,-16.113,-83.496
1660049419,-81.543,-52.246,10.254,-68.359
1660049419,-69.824,-43.945,19.531,-28.32
1660049419,-51.27,-24.902,-3.906,-18.555
1660049419,-49.316,-49.316,-36.133,-39.062
1660049419,-49.805,-62.012,-34.668,-50.293
1660049419,-52.734,-79.59,-11.23,-46.387
1660049419,-76.172,-145.508,-20.02,-37.109
1660049419,-50.293,-80.078,-14.648,4.883
1660049419,-24.902,-10.742,-17.578,4.395
1660049419,-52.734,-45.41,-1.465,-11.719
1660049419,-76.66,-42.969,-25.391,-55.664
1660049419,-80.078,-34.18,-16.113,-83.496
1660049419,-81.543,-52.246,10.254,-68.359
1660049419,-69.824,-43.945,19.531,-28.32
1660049419,-51.27,-24.902,-3.906,-18.555
1660049419,-49.316,-49.316,-36.133,-39.062
1660049419,-49.805,-62.012,-34.668,-50.293
1660049419,-52.734,-79.59,-11.23,-46.387
1660049419,-76.172,-145.508,-20.02,-37.109
1660049419,-50.293,-80.078,-14.648,4.883
1660049419,-24.902,-10.742,-17.578,4.395
1660049419,-37.109,-35.645,-37.598,-44.922
1660049419,-31.738,-26.367,-17.578,-40.039
1660049419,-20.508,-19.043,7.812,4.395
1660049419,-3.906,-21.484,0.488,14.648
1660049419,-9.277,-14.648,-26.855,-9.766
1660049419,-40.039,-1.465,-33.691,-37.109
1660049419,-49.316,-30.762,-19.043,-48.34
1660049419,-26.367,-29.785,0.488,-14.16
1660049419,-36.133,-83.984,-19.043,-7.324
1660049419,-61.523,-161.621,-73.73,-54.199
1660049419,-32.227,-60.547,-61.035,-59.57
1660049419,-37.109,-30.762,-28.32,-56.641
1660049419,-37.109,-35.645,-37.598,-44.922
1660049419,-31.738,-26.367,-17.578,-40.039
1660049419,-20.508,-19.043,7.812,4.395
1660049419,-3.906,-21.484,0.488,14.648
1660049419,-9.277,-14.648,-26.855,-9.766
1660049419,-40.039,-1.465,-33.691,-37.109
1660049419,-49.316,-30.762,-19.043,-48.34
1660049419,-26.367,-29.785,0.488,-14.16
1660049419,-36.133,-83.984,-19.043,-7.324
1660049419,-61.523,-161.621,-73.73,-54.199
1660049419,-32.227,-60.547,-61.035,-59.57
1660049419,-37.109,-30.762,-28.32,-56.641
1660049419,-37.109,-35.645,-37.598,-44.922
1660049419,-31.738,-26.367,-17.578,-40.039
1660049419,-20.508,-19.043,7.812,4.395
1660049419,-3.906,-21.484,0.488,14.648
1660049419,-9.277,-14.648,-26.855,-9.766
1660049419,-40.039,-1.465,-33.691,-37.109
1660049419,-49.316,-30.762,-19.043,-48.34
1660049419,-26.367,-29.785,0.488,-14.16
1660049419,-36.133,-83.984,-19.043,-7.324
1660049419,-61.523,-161.621,-73.73,-54.199
1660049419,-32.227,-60.547,-61.035,-59.57
1660049419,-37.109,-30.762,-28.32,-56.641
1660049419,-62.5,-80.078,-22.461,-48.34
1660049419,-29.297,-23.438,-12.695,-3.418
1660049419,0,15.625,-20.02,7.812
1660049419,-28.809,-21.484,-48.828,-40.039
1660049419,-46.875,-22.949,-34.18,-65.43
1660049419,-20.02,14.16,-1.953,-36.621
1660049419,1.465,6.348,-5.371,2.441
1660049419,-6.348,-51.758,-38.574,-8.301
1660049419,-61.035,-147.949,-83.496,-71.777
1660049419,-59.082,-62.988,-56.152,-69.824
1660049419,-20.996,30.762,-2.441,-12.695
1660049419,-11.719,28.32,0,17.09
1660049419,-62.5,-80.078,-22.461,-48.34
1660049419,-29.297,-23.438,-12.695,-3.418
1660049419,0,15.625,-20.02,7.812
1660049419,-28.809,-21.484,-48.828,-40.039
1660049419,-46.875,-22.949,-34.18,-65.43
1660049419,-20.02,14.16,-1.953,-36.621
1660049419,1.465,6.348,-5.371,2.441
1660049419,-6.348,-51.758,-38.574,-8.301
1660049419,-61.035,-147.949,-83.496,-71.777
1660049419,-59.082,-62.988,-56.152,-69.824
1660049419,-20.996,30.762,-2.441,-12.695
1660049419,-11.719,28.32,0,17.09
1660049419,-62.5,-80.078,-22.461,-48.34
1660049419,-29.297,-23.438,-12.695,-3.418
1660049419,0,15.625,-20.02,7.812
1660049419,-28.809,-21.484,-48.828,-40.039
1660049419,-46.875,-22.949,-34.18,-65.43
1660049419,-20.02,14.16,-1.953,-36.621
1660049419,1.465,6.348,-5.371,2.441
1660049419,-6.348,-51.758,-38.574,-8.301
1660049419,-61.035,-147.949,-83.496,-71.777
1660049419,-59.082,-62.988,-56.152,-69.824
1660049419,-20.996,30.762,-2.441,-12.695
1660049419,-11.719,28.32,0,17.09
1660049419,-18.555,-27.832,-45.898,6.348
1660049419,-25.391,-26.855,-57.617,-24.414
1660049419,-33.203,8.301,-36.133,-43.945
1660049419,-41.016,-14.16,-18.555,-39.551
1660049419,-26.855,-26.367,-13.672,-0.488
1660049419,-15.625,-9.766,-28.809,3.906
1660049419,-22.461,-6.348,-42.969,-34.18
1660049419,-35.645,-28.809,-48.828,-52.246
1660049419,-37.109,-17.09,-22.461,-33.691
1660049419,-22.461,-12.207,-6.348,2.93
1660049419,9.766,-33.691,-41.016,16.113
1660049419,-10.742,-52.734,-59.082,-24.414
1660049419,-18.555,-27.832,-45.898,6.348
1660049419,-25.391,-26.855,-57.617,-24.414
1660049419,-33.203,8.301,-36.133,-43.945
1660049419,-41.016,-14.16,-18.555,-39.551
1660049419,-26.855,-26.367,-13.672,-0.488
1660049419,-15.625,-9.766,-28.809,3.906
1660049419,-22.461,-6.348,-42.969,-34.18
1660049419,-35.645,-28.809,-48.828,-52.246
1660049419,-37.109,-17.09,-22.461,-33.691
1660049419,-22.461,-12.207,-6.348,2.93
1660049419,9.766,-33.691,-41.016,16.113
1660049419,-10.742,-52.734,-59.082,-24.414
1660049419,-68.848,-62.012,-36.133,-78.125
1660049419,-53.223,-17.578,-0.977,-54.688
1660049419,0,8.301,17.578,14.16
1660049419,1.953,-53.223,-8.789,24.414
1660049419,-18.066,-69.824,-38.086,-10.254
1660049419,-35.645,-17.578,-29.297,-39.551
1660049419,-40.527,-37.109,-10.254,-32.715
1660049419,-31.25,-124.512,-22.461,-11.719
1660049419,-12.695,-72.754,-29.297,14.648
1660049419,-8.789,-21.973,-40.527,-0.488
1660049419,-29.297,-37.598,-45.898,-49.316
1660049419,-43.457,-30.273,-22.949,-46.387
1660049419,-68.848,-62.012,-36.133,-78.125
1660049419,-53.223,-17.578,-0.977,-54.688
1660049419,0,8.301,17.578,14.16
1660049419,1.953,-53.223,-8.789,24.414
1660049419,-18.066,-69.824,-38.086,-10.254
1660049419,-35.645,-17.578,-29.297,-39.551
1660049419,-40.527,-37.109,-10.254,-32.715
1660049419,-31.25,-124.512,-22.461,-11.719
1660049419,-12.695,-72.754,-29.297,14.648
1660049419,-8.789,-21.973,-40.527,-0.488
1660049419,-29.297,-37.598,-45.898,-49.316
1660049419,-43.457,-30.273,-22.949,-46.387
1660049419,-30.762,-14.648,0.977,-5.859
1660049419,-2.93,-23.438,-12.207,16.113
1660049419,-3.906,-33.691,-41.992,-9.766
1660049419,-28.32,-33.203,-49.316,-50.781
1660049419,-38.086,-32.227,-24.414,-48.34
1660049419,-10.254,11.719,7.812,-4.883
1660049419,-7.324,-31.738,-27.344,0.488
1660049419,-47.852,-134.766,-84.961,-44.922
1660049419,-41.016,-70.312,-60.059,-50.293
1660049419,-35.156,-0.977,-19.043,-46.875
1660049419,-50.781,-59.57,-27.832,-41.016
1660049419,-23.438,-49.316,-33.203,-4.883
1660049419,-30.762,-14.648,0.977,-5.859
1660049419,-2.93,-23.438,-12.207,16.113
1660049419,-3.906,-33.691,-41.992,-9.766
1660049419,-28.32,-33.203,-49.316,-50.781
1660049419,-38.086,-32.227,-24.414,-48.34
1660049419,-10.254,11.719,7.812,-4.883
1660049419,-7.324,-31.738,-27.344,0.488
1660049419,-47.852,-134.766,-84.961,-44.922
1660049419,-41.016,-70.312,-60.059,-50.293
1660049419,-35.156,-0.977,-19.043,-46.875
1660049419,-50.781,-59.57,-27.832,-41.016
1660049419,-23.438,-49.316,-33.203,-4.883
1660049419,0,-19.043,-43.945,0.977
1660049419,-30.273,-25.391,-54.688,-43.457
1660049419,-47.363,-16.113,-36.621,-50.293
1660049419,-31.738,-19.043,-13.672,-16.113
1660049419,-3.418,9.277,-1.953,16.113
1660049419,-5.371,16.113,-23.438,9.766
1660049419,-43.457,-99.121,-73.73,-52.734
1660049419,-52.246,-78.613,-57.617,-74.219
1660049419,-26.367,15.625,-1.465,-21.484
1660049419,3.906,-11.719,0.488,29.785
1660049419,-2.93,-55.176,-35.156,7.812
1660049419,-21.484,-32.715,-52.734,-44.922
1660049419,0,-19.043,-43.945,0.977
1660049419,-30.273,-25.391,-54.688,-43.457
1660049419,-47.363,-16.113,-36.621,-50.293
1660049419,-31.738,-19.043,-13.672,-16.113
1660049419,-3.418,9.277,-1.953,16.113
1660049419,-5.371,16.113,-23.438,9.766
1660049419,-43.457,-99.121,-73.73,-52.734
1660049419,-52.246,-78.613,-57.617,-74.219
1660049419,-26.367,15.625,-1.465,-21.484
1660049419,3.906,-11.719,0.488,29.785
1660049419,-2.93,-55.176,-35.156,7.812
1660049419,-21.484,-32.715,-52.734,-44.922
1660049419,-42.48,-30.762,-47.852,-65.43
1660049419,-41.992,-25.879,-25.879,-36.621
1660049419,-18.066,-11.23,-17.09,-0.488
1660049419,-0.488,-2.441,-28.32,14.648
1660049419,-8.789,-10.254,-44.922,-13.184
1660049419,-41.016,-23.926,-47.852,-59.082
1660049419,-51.758,-42.48,-31.738,-43.945
1660049419,-25.879,-41.504,-20.02,11.719
1660049419,-5.371,-0.977,-23.438,20.02
1660049419,-39.062,-88.379,-65.918,-43.945
1660049419,-74.707,-167.48,-87.891,-92.773
1660049419,-42.969,-15.137,-27.832,-47.363
1660049419,-42.48,-30.762,-47.852,-65.43
1660049419,-41.992,-25.879,-25.879,-36.621
1660049419,-18.066,-11.23,-17.09,-0.488
1660049419,-0.488,-2.441,-28.32,14.648
1660049419,-8.789,-10.254,-44.922,-13.184
1660049419,-41.016,-23.926,-47.852,-59.082
1660049419,-51.758,-42.48,-31.738,-43.945
1660049419,-25.879,-41.504,-20.02,11.719
1660049419,-5.371,-0.977,-23.438,20.02
1660049419,-39.062,-88.379,-65.918,-43.945
1660049419,-74.707,-167.48,-87.891,-92.773
1660049419,-42.969,-15.137,-27.832,-47.363
1660049419,-42.48,-30.762,-47.852,-65.43
1660049419,-41.992,-25.879,-25.879,-36.621
1660049419,-18.066,-11.23,-17.09,-0.488
1660049419,-0.488,-2.441,-28.32,14.648
1660049419,-8.789,-10.254,-44.922,-13.184
1660049419,-41.016,-23.926,-47.852,-59.082
1660049419,-51.758,-42.48,-31.738,-43.945
1660049419,-25.879,-41.504,-20.02,11.719
1660049419,-5.371,-0.977,-23.438,20.02
1660049419,-39.062,-88.379,-65.918,-43.945
1660049419,-74.707,-167.48,-87.891,-92.773
1660049419,-42.969,-15.137,-27.832,-47.363
1660049420,-22.949,-2.441,-15.137,-1.465
1660049420,-40.527,-95.703,-57.617,-15.137
1660049420,-34.668,-34.18,-58.105,-25.879
1660049420,-42.48,-0.488,-41.504,-51.27
1660049420,-48.34,-0.488,-16.113,-48.828
1660049420,-19.043,35.645,7.812,11.23
1660049420,-11.23,10.742,-19.043,20.996
1660049420,-24.414,-12.695,-52.734,-16.602
1660049420,-57.129,-52.734,-59.082,-62.988
1660049420,-83.984,-157.227,-62.012,-78.613
1660049420,-36.133,-48.34,-20.02,-8.301
1660049420,-12.207,30.273,-11.719,19.043
1660049420,-22.949,-2.441,-15.137,-1.465
1660049420,-40.527,-95.703,-57.617,-15.137
1660049420,-34.668,-34.18,-58.105,-25.879
1660049420,-42.48,-0.488,-41.504,-51.27
1660049420,-48.34,-0.488,-16.113,-48.828
1660049420,-19.043,35.645,7.812,11.23
1660049420,-11.23,10.742,-19.043,20.996
1660049420,-24.414,-12.695,-52.734,-16.602
1660049420,-57.129,-52.734,-59.082,-62.988
1660049420,-83.984,-157.227,-62.012,-78.613
1660049420,-36.133,-48.34,-20.02,-8.301
1660049420,-12.207,30.273,-11.719,19.043
1660049420,-22.461,-28.32,-57.617,-21.484
1660049420,-34.18,-25.391,-61.035,-52.734
1660049420,-43.945,4.883,-24.414,-49.805
1660049420,-24.902,2.93,-8.789,-6.348
1660049420,-8.789,-44.434,-34.18,15.625
1660049420,-7.812,-41.504,-49.805,-5.859
1660049420,-28.32,-27.344,-51.758,-41.016
1660049420,-49.805,-18.555,-33.203,-52.246
1660049420,-55.176,-76.66,-22.461,-33.203
1660049420,-56.152,-167.48,-56.152,-28.809
1660049420,-20.996,-54.199,-53.223,-11.23
1660049420,-32.715,-5.859,-47.363,-35.156
1660049420,-22.461,-28.32,-57.617,-21.484
1660049420,-34.18,-25.391,-61.035,-52.734
1660049420,-43.945,4.883,-24.414,-49.805
1660049420,-24.902,2.93,-8.789,-6.348
1660049420,-8.789,-44.434,-34.18,15.625
1660049420,-7.812,-41.504,-49.805,-5.859
1660049420,-28.32,-27.344,-51.758,-41.016
1660049420,-49.805,-18.555,-33.203,-52.246
1660049420,-55.176,-76.66,-22.461,-33.203
1660049420,-56.152,-167.48,-56.152,-28.809
1660049420,-20.996,-54.199,-53.223,-11.23
1660049420,-32.715,-5.859,-47.363,-35.156
1660049420,-61.523,-67.871,-47.363,-62.012
1660049420,-40.527,-15.625,-13.672,-20.02
1660049420,0.488,39.062,4.395,24.902
1660049420,7.812,-0.977,-33.691,11.719
1660049420,-22.461,-25.391,-61.523,-32.227
1660049420,-50.293,-7.324,-46.387,-58.105
1660049420,-33.203,30.273,-12.207,-23.926
1660049420,-14.16,-9.277,-12.695,17.578
1660049420,-51.27,-267.09,-84.473,-28.809
1660049420,-49.805,-164.551,-80.566,-55.664
1660049420,-41.016,32.227,-42.969,-49.805
1660049420,-48.34,3.418,-24.902,-37.109
1660049420,-61.523,-67.871,-47.363,-62.012
1660049420,-40.527,-15.625,-13.672,-20.02
1660049420,0.488,39.062,4.395,24.902
1660049420,7.812,-0.977,-33.691,11.719
1660049420,-22.461,-25.391,-61.523,-32.227
1660049420,-50.293,-7.324,-46.387,-58.105
1660049420,-33.203,30.273,-12.207,-23.926
1660049420,-14.16,-9.277,-12.695,17.578
1660049420,-51.27,-267.09,-84.473,-28.809
1660049420,-49.805,-164.551,-80.566,-55.664
1660049420,-41.016,32.227,-42.969,-49.805
1660049420,-48.34,3.418,-24.902,-37.109
1660049420,-31.25,6.836,-10.254,0.977
1660049420,-17.09,19.043,-23.926,6.836
1660049420,-13.672,7.812,-44.922,-21.484
1660049420,-33.691,-11.719,-42.48,-47.363
1660049420,-39.062,-10.254,-16.113,-35.156
1660049420,-8.789,14.648,-2.441,14.648
1660049420,7.324,16.602,-23.926,26.367
1660049420,-19.043,-85.449,-60.059,-30.273
1660049420,-59.082,-123.047,-63.965,-73.73
1660049420,-37.598,19.531,-16.113,-38.574
1660049420,-0.977,37.598,3.418,19.531
1660049420,-11.23,-55.176,-43.945,6.836
1660049420,-25.879,-48.34,-75.195,-36.621
1660049420,-23.926,2.441,-43.945,-55.176
1660049420,-26.367,1.953,-14.16,-43.457
1660049420,-12.207,-4.395,-3.418,-4.395
1660049420,9.766,-2.93,-10.254,18.555
1660049420,7.812,18.066,-32.715,-7.812
1660049420,-27.344,-30.273,-51.27,-58.105
1660049420,-60.547,-115.234,-45.41,-73.242
1660049420,-26.367,-49.805,-19.043,-21.973
1660049420,17.578,13.184,-13.672,12.207
1660049420,-0.977,0,-33.691,-12.207
1660049420,-28.32,-3.906,-42.48,-48.34
1660049420,-25.879,-48.34,-75.195,-36.621
1660049420,-23.926,2.441,-43.945,-55.176
1660049420,-26.367,1.953,-14.16,-43.457
1660049420,-12.207,-4.395,-3.418,-4.395
1660049420,9.766,-2.93,-10.254,18.555
1660049420,7.812,18.066,-32.715,-7.812
1660049420,-27.344,-30.273,-51.27,-58.105
1660049420,-60.547,-115.234,-45.41,-73.242
1660049420,-26.367,-49.805,-19.043,-21.973
1660049420,17.578,13.184,-13.672,12.207
1660049420,-0.977,0,-33.691,-12.207
1660049420,-28.32,-3.906,-42.48,-48.34
1660049420,-34.668,-12.695,-25.879,-53.223
1660049420,-24.414,-13.184,2.93,-16.113
1660049420,-17.578,-20.02,-15.137,7.812
1660049420,-27.832,-37.598,-56.641,-21.484
1660049420,-36.621,-33.691,-51.27,-55.664
1660049420,-34.18,20.508,-8.301,-47.852
1660049420,-34.18,-17.09,-10.742,-22.949
1660049420,-37.598,-77.148,-41.504,-13.672
1660049420,-9.277,-14.648,-32.715,-6.836
1660049420,-7.324,1.465,-29.785,-31.738
1660049420,-54.199,-56.641,-38.574,-65.918
1660049420,-51.27,-44.922,-21.973,-38.574
1660049420,-34.668,-12.695,-25.879,-53.223
1660049420,-24.414,-13.184,2.93,-16.113
1660049420,-17.578,-20.02,-15.137,7.812
1660049420,-27.832,-37.598,-56.641,-21.484
1660049420,-36.621,-33.691,-51.27,-55.664
1660049420,-34.18,20.508,-8.301,-47.852
1660049420,-34.18,-17.09,-10.742,-22.949
1660049420,-37.598,-77.148,-41.504,-13.672
1660049420,-9.277,-14.648,-32.715,-6.836
1660049420,-7.324,1.465,-29.785,-31.738
1660049420,-54.199,-56.641,-38.574,-65.918
1660049420,-51.27,-44.922,-21.973,-38.574
1660049420,-34.668,-12.695,-25.879,-53.223
1660049420,-24.414,-13.184,2.93,-16.113
1660049420,-17.578,-20.02,-15.137,7.812
1660049420,-27.832,-37.598,-56.641,-21.484
1660049420,-36.621,-33.691,-51.27,-55.664
1660049420,-34.18,20.508,-8.301,-47.852
1660049420,-34.18,-17.09,-10.742,-22.949
1660049420,-37.598,-77.148,-41.504,-13.672
1660049420,-9.277,-14.648,-32.715,-6.836
1660049420,-7.324,1.465,-29.785,-31.738
1660049420,-54.199,-56.641,-38.574,-65.918
1660049420,-51.27,-44.922,-21.973,-38.574
1660049420,-10.254,-12.207,-8.789,10.742
1660049420,-5.859,-27.344,-35.156,1.953
1660049420,-23.438,-51.27,-54.688,-43.945
1660049420,-27.832,-33.691,-38.086,-59.57
1660049420,-27.344,-23.438,-5.371,-25.879
1660049420,-8.789,2.93,7.812,17.578
1660049420,-33.691,-132.812,-69.336,-22.949
1660049420,-41.016,-125,-88.867,-59.57
1660049420,-25.391,-7.324,-38.086,-56.152
1660049420,-30.762,-4.883,-14.16,-32.227
1660049420,-4.883,2.441,-8.301,15.625
1660049420,15.625,4.883,-23.926,22.461
1660049420,-10.254,-12.207,-8.789,10.742
1660049420,-5.859,-27.344,-35.156,1.953
1660049420,-23.438,-51.27,-54.688,-43.945
1660049420,-27.832,-33.691,-38.086,-59.57
1660049420,-27.344,-23.438,-5.371,-25.879
1660049420,-8.789,2.93,7.812,17.578
1660049420,-33.691,-132.812,-69.336,-22.949
1660049420,-41.016,-125,-88.867,-59.57
1660049420,-25.391,-7.324,-38.086,-56.152
1660049420,-30.762,-4.883,-14.16,-32.227
1660049420,-4.883,2.441,-8.301,15.625
1660049420,15.625,4.883,-23.926,22.461
1660049420,-1.953,-18.066,-50.293,-25.391
1660049420,-32.715,-15.137,-47.852,-67.383
1660049420,-38.086,-10.254,-31.738,-50.293
1660049420,-12.695,1.465,-19.043,-0.977
1660049420,5.371,4.395,-31.25,20.508
1660049420,-23.438,-22.949,-54.199,-20.508
1660049420,-57.129,-52.246,-59.082,-68.848
1660049420,-53.223,-47.363,-30.273,-51.27
1660049420,-22.461,-16.602,-1.953,1.465
1660049420,-36.621,-57.617,-50.293,-10.742
1660049420,-86.914,-118.652,-99.609,-66.406
1660049420,-66.406,-36.621,-51.758,-61.523
1660049420,-1.953,-18.066,-50.293,-25.391
1660049420,-32.715,-15.137,-47.852,-67.383
1660049420,-38.086,-10.254,-31.738,-50.293
1660049420,-12.695,1.465,-19.043,-0.977
1660049420,5.371,4.395,-31.25,20.508
1660049420,-23.438,-22.949,-54.199,-20.508
1660049420,-57.129,-52.246,-59.082,-68.848
1660049420,-53.223,-47.363,-30.273,-51.27
1660049420,-22.461,-16.602,-1.953,1.465
1660049420,-36.621,-57.617,-50.293,-10.742
1660049420,-86.914,-118.652,-99.609,-66.406
1660049420,-66.406,-36.621,-51.758,-61.523
1660049420,-1.953,-18.066,-50.293,-25.391
1660049420,-32.715,-15.137,-47.852,-67.383
1660049420,-38.086,-10.254,-31.738,-50.293
1660049420,-12.695,1.465,-19.043,-0.977
1660049420,5.371,4.395,-31.25,20.508
1660049420,-23.438,-22.949,-54.199,-20.508
1660049420,-57.129,-52.246,-59.082,-68.848
1660049420,-53.223,-47.363,-30.273,-51.27
1660049420,-22.461,-16.602,-1.953,1.465
1660049420,-36.621,-57.617,-50.293,-10.742
1660049420,-86.914,-118.652,-99.609,-66.406
1660049420,-66.406,-36.621,-51.758,-61.523
1660049420,-51.758,-19.043,-21.973,-38.086
1660049420,-33.691,-13.184,-7.324,2.93
1660049420,1.953,9.766,-11.23,25.879
1660049420,-12.207,-12.695,-42.48,-10.254
1660049420,-49.316,-31.25,-47.852,-52.246
1660049420,-46.387,-4.883,-20.508,-43.945
1660049420,-21.973,-13.672,-6.348,-3.418
1660049420,4.395,-16.602,-11.719,25.391
1660049420,4.395,-16.113,-36.133,-12.695
1660049420,-72.266,-104.004,-80.078,-96.191
1660049420,-84.473,-77.637,-49.316,-84.473
1660049420,-27.832,-7.812,-1.465,-1.465
1660049420,-51.758,-19.043,-21.973,-38.086
1660049420,-33.691,-13.184,-7.324,2.93
1660049420,1.953,9.766,-11.23,25.879
1660049420,-12.207,-12.695,-42.48,-10.254
1660049420,-49.316,-31.25,-47.852,-52.246
1660049420,-46.387,-4.883,-20.508,-43.945
1660049420,-21.973,-13.672,-6.348,-3.418
1660049420,4.395,-16.602,-11.719,25.391
1660049420,4.395,-16.113,-36.133,-12.695
1660049420,-72.266,-104.004,-80.078,-96.191
1660049420,-84.473,-77.637,-49.316,-84.473
1660049420,-27.832,-7.812,-1.465,-1.465
1660049420,-51.758,-19.043,-21.973,-38.086
1660049420,-33.691,-13.184,-7.324,2.93
1660049420,1.953,9.766,-11.23,25.879
1660049420,-12.207,-12.695,-42.48,-10.254
1660049420,-49.316,-31.25,-47.852,-52.246
1660049420,-46.387,-4.883,-20.508,-43.945
1660049420,-21.973,-13.672,-6.348,-3.418
1660049420,4.395,-16.602,-11.719,25.391
1660049420,4.395,-16.113,-36.133,-12.695
1660049420,-72.266,-104.004,-80.078,-96.191
1660049420,-84.473,-77.637,-49.316,-84.473
1660049420,-27.832,-7.812,-1.465,-1.465
1660049420,-4.883,-21.973,-19.043,23.926
1660049420,0.977,-7.324,-38.574,-8.789
1660049420,-33.691,-20.996,-54.199,-57.617
1660049420,-44.434,-36.621,-40.039,-66.895
1660049420,-20.996,-24.414,-16.602,-21.973
1660049420,2.93,12.207,-20.508,14.648
1660049420,0.977,-15.625,-49.805,-12.207
1660049420,-23.438,-39.551,-68.359,-58.594
1660049420,-53.223,-15.625,-53.711,-75.195
1660049420,-51.27,-26.367,-25.391,-33.203
1660049420,-2.93,7.812,-10.742,26.855
1660049420,-8.301,-13.672,-43.945,10.742
1660049420,-4.883,-21.973,-19.043,23.926
1660049420,0.977,-7.324,-38.574,-8.789
1660049420,-33.691,-20.996,-54.199,-57.617
1660049420,-44.434,-36.621,-40.039,-66.895
1660049420,-20.996,-24.414,-16.602,-21.973
1660049420,2.93,12.207,-20.508,14.648
1660049420,0.977,-15.625,-49.805,-12.207
1660049420,-23.438,-39.551,-68.359,-58.594
1660049420,-53.223,-15.625,-53.711,-75.195
1660049420,-51.27,-26.367,-25.391,-33.203
1660049420,-2.93,7.812,-10.742,26.855
1660049420,-8.301,-13.672,-43.945,10.742
1660049420,-4.883,-21.973,-19.043,23.926
1660049420,0.977,-7.324,-38.574,-8.789
1660049420,-33.691,-20.996,-54.199,-57.617
1660049420,-44.434,-36.621,-40.039,-66.895
1660049420,-20.996,-24.414,-16.602,-21.973
1660049420,2.93,12.207,-20.508,14.648
1660049420,0.977,-15.625,-49.805,-12.207
1660049420,-23.438,-39.551,-68.359,-58.594
1660049420,-53.223,-15.625,-53.711,-75.195
1660049420,-51.27,-26.367,-25.391,-33.203
1660049420,-2.93,7.812,-10.742,26.855
1660049420,-8.301,-13.672,-43.945,10.742
1660049420,-34.18,48.828,-69.336,-36.621
1660049420,-41.016,145.508,-33.203,-53.711
1660049420,-43.945,97.168,-3.418,-38.086
1660049420,-44.434,107.91,-16.602,-29.785
1660049420,-37.598,23.926,-41.992,-20.508
1660049420,-39.551,3.906,-49.805,-44.922
1660049420,-95.703,135.742,-60.547,-114.258
1660049420,-137.207,78.125,-59.57,-127.93
1660049420,-104.98,-18.555,-16.113,-74.219
1660049420,-108.398,1.465,-21.973,-93.262
1660049420,-162.598,85.938,-65.918,-166.992
1660049420,-188.965,183.105,-62.988,-209.473
1660049420,-34.18,48.828,-69.336,-36.621
1660049420,-41.016,145.508,-33.203,-53.711
1660049420,-43.945,97.168,-3.418,-38.086
1660049420,-44.434,107.91,-16.602,-29.785
1660049420,-37.598,23.926,-41.992,-20.508
1660049420,-39.551,3.906,-49.805,-44.922
1660049420,-95.703,135.742,-60.547,-114.258
1660049420,-137.207,78.125,-59.57,-127.93
1660049420,-104.98,-18.555,-16.113,-74.219
1660049420,-108.398,1.465,-21.973,-93.262
1660049420,-162.598,85.938,-65.918,-166.992
1660049420,-188.965,183.105,-62.988,-209.473
1660049420,-34.18,48.828,-69.336,-36.621
1660049420,-41.016,145.508,-33.203,-53.711
1660049420,-43.945,97.168,-3.418,-38.086
1660049420,-44.434,107.91,-16.602,-29.785
1660049420,-37.598,23.926,-41.992,-20.508
1660049420,-39.551,3.906,-49.805,-44.922
1660049420,-95.703,135.742,-60.547,-114.258
1660049420,-137.207,78.125,-59.57,-127.93
1660049420,-104.98,-18.555,-16.113,-74.219
1660049420,-108.398,1.465,-21.973,-93.262
1660049420,-162.598,85.938,-65.918,-166.992
1660049420,-188.965,183.105,-62.988,-209.473
1660049420,-167.969,372.559,-28.809,-180.176
1660049420,-133.789,298.34,-30.762,-125
1660049420,-45.898,144.043,1.953,-33.691
1660049420,-74.219,274.902,-22.461,-62.012
1660049420,-157.715,367.188,-58.105,-164.551
1660049420,-99.121,538.086,7.812,-106.445
1660049420,-64.941,666.016,-29.297,-56.152
1660049420,-92.285,711.426,-74.219,-89.844
1660049420,-111.328,865.723,-50.293,-134.277
1660049420,-126.465,967.773,-56.152,-160.645
1660049420,-155.762,962.891,-51.758,-161.621
1660049420,-133.301,964.355,-36.621,-123.535
1660049420,-167.969,372.559,-28.809,-180.176
1660049420,-133.789,298.34,-30.762,-125
1660049420,-45.898,144.043,1.953,-33.691
1660049420,-74.219,274.902,-22.461,-62.012
1660049420,-157.715,367.188,-58.105,-164.551
1660049420,-99.121,538.086,7.812,-106.445
1660049420,-64.941,666.016,-29.297,-56.152
1660049420,-92.285,711.426,-74.219,-89.844
1660049420,-111.328,865.723,-50.293,-134.277
1660049420,-126.465,967.773,-56.152,-160.645
1660049420,-155.762,962.891,-51.758,-161.621
1660049420,-133.301,964.355,-36.621,-123.535
1660049420,-66.895,966.309,-21.484,-65.43
1660049420,-91.309,965.82,-54.688,-77.637
1660049420,-109.375,965.82,-100.586,-100.098
1660049420,-97.168,965.82,-79.59,-71.777
1660049420,-104.492,965.82,-63.965,-53.223
1660049420,-89.844,965.332,-57.617,-37.598
1660049420,-81.055,967.285,-85.449,-50.293
1660049420,-100.586,958.496,-128.418,-85.938
1660049420,-84.473,948.242,-100.586,-80.078
1660049420,-49.805,978.027,-84.961,-30.762
1660049420,-28.809,945.312,-111.328,2.93
1660049420,-47.852,754.883,-148.926,-29.297
1660049420,-43.457,764.648,-125.977,-36.621
1660049420,-13.672,771.973,-82.52,-11.719
1660049420,12.695,730.957,-69.336,24.902
1660049420,42.969,736.816,-67.871,54.199
1660049420,43.457,581.055,-90.332,40.039
1660049420,6.836,501.465,-91.797,-5.371
1660049420,-1.953,369.141,-62.012,-14.16
1660049420,18.555,234.375,-36.621,21.973
1660049420,36.133,174.316,-36.621,45.898
1660049420,40.527,119.629,-49.805,47.363
1660049420,20.508,27.832,-56.641,20.996
1660049420,9.766,-75.195,-36.133,3.418
1660049420,-43.457,764.648,-125.977,-36.621
1660049420,-13.672,771.973,-82.52,-11.719
1660049420,12.695,730.957,-69.336,24.902
1660049420,42.969,736.816,-67.871,54.199
1660049420,43.457,581.055,-90.332,40.039
1660049420,6.836,501.465,-91.797,-5.371
1660049420,-1.953,369.141,-62.012,-14.16
1660049420,18.555,234.375,-36.621,21.973
1660049420,36.133,174.316,-36.621,45.898
1660049420,40.527,119.629,-49.805,47.363
1660049420,20.508,27.832,-56.641,20.996
1660049420,9.766,-75.195,-36.133,3.418
1660049420,-43.457,764.648,-125.977,-36.621
1660049420,-13.672,771.973,-82.52,-11.719
1660049420,12.695,730.957,-69.336,24.902
1660049420,42.969,736.816,-67.871,54.199
1660049420,43.457,581.055,-90.332,40.039
1660049420,6.836,501.465,-91.797,-5.371
1660049420,-1.953,369.141,-62.012,-14.16
1660049420,18.555,234.375,-36.621,21.973
1660049420,36.133,174.316,-36.621,45.898
1660049420,40.527,119.629,-49.805,47.363
1660049420,20.508,27.832,-56.641,20.996
1660049420,9.766,-75.195,-36.133,3.418
1660049420,26.855,-170.898,-3.906,35.156
1660049420,52.734,-214.844,2.441,79.59
1660049420,48.828,-212.402,-20.508,69.336
1660049420,37.109,-272.461,-29.785,33.203
1660049420,23.926,-343.75,-12.207,18.066
1660049420,12.207,-294.434,6.348,24.414
1660049420,20.508,-333.984,-3.418,54.688
1660049420,31.738,-436.035,-23.926,62.5
1660049420,21.973,-445.801,-37.109,9.277
1660049420,3.418,-486.328,-26.855,-17.09
1660049420,12.207,-460.449,11.23,16.113
1660049420,41.016,-441.895,24.414,66.406
1660049420,26.855,-170.898,-3.906,35.156
1660049420,52.734,-214.844,2.441,79.59
1660049420,48.828,-212.402,-20.508,69.336
1660049420,37.109,-272.461,-29.785,33.203
1660049420,23.926,-343.75,-12.207,18.066
1660049420,12.207,-294.434,6.348,24.414
1660049420,20.508,-333.984,-3.418,54.688
1660049420,31.738,-436.035,-23.926,62.5
1660049420,21.973,-445.801,-37.109,9.277
1660049420,3.418,-486.328,-26.855,-17.09
1660049420,12.207,-460.449,11.23,16.113
1660049420,41.016,-441.895,24.414,66.406
1660049420,26.855,-170.898,-3.906,35.156
1660049420,52.734,-214.844,2.441,79.59
1660049420,48.828,-212.402,-20.508,69.336
1660049420,37.109,-272.461,-29.785,33.203
1660049420,23.926,-343.75,-12.207,18.066
1660049420,12.207,-294.434,6.348,24.414
1660049420,20.508,-333.984,-3.418,54.688
1660049420,31.738,-436.035,-23.926,62.5
1660049420,21.973,-445.801,-37.109,9.277
1660049420,3.418,-486.328,-26.855,-17.09
1660049420,12.207,-460.449,11.23,16.113
1660049420,41.016,-441.895,24.414,66.406
1660049420,52.734,-455.078,4.395,67.871
1660049420,29.297,-559.082,-27.832,20.02
1660049420,0,-567.871,-31.25,-27.344
1660049420,-2.441,-479.004,-1.465,-7.324
1660049420,23.438,-496.094,22.949,52.734
1660049420,29.297,-479.004,9.277,45.898
1660049420,-10.254,-511.719,-33.691,-2.93
1660049420,-38.086,-593.262,-41.992,-37.598
1660049420,-22.461,-510.742,-2.441,-24.902
1660049420,-18.555,-478.027,0.977,-4.395
1660049420,-21.973,-607.91,-43.945,-6.348
1660049420,-3.906,-491.699,-41.992,-3.906
1660049420,52.734,-455.078,4.395,67.871
1660049420,29.297,-559.082,-27.832,20.02
1660049420,0,-567.871,-31.25,-27.344
1660049420,-2.441,-479.004,-1.465,-7.324
1660049420,23.438,-496.094,22.949,52.734
1660049420,29.297,-479.004,9.277,45.898
1660049420,-10.254,-511.719,-33.691,-2.93
1660049420,-38.086,-593.262,-41.992,-37.598
1660049420,-22.461,-510.742,-2.441,-24.902
1660049420,-18.555,-478.027,0.977,-4.395
1660049420,-21.973,-607.91,-43.945,-6.348
1660049420,-3.906,-491.699,-41.992,-3.906
1660049420,52.734,-455.078,4.395,67.871
1660049420,29.297,-559.082,-27.832,20.02
1660049420,0,-567.871,-31.25,-27.344
1660049420,-2.441,-479.004,-1.465,-7.324
1660049420,23.438,-496.094,22.949,52.734
1660049420,29.297,-479.004,9.277,45.898
1660049420,-10.254,-511.719,-33.691,-2.93
1660049420,-38.086,-593.262,-41.992,-37.598
1660049420,-22.461,-510.742,-2.441,-24.902
1660049420,-18.555,-478.027,0.977,-4.395
1660049420,-21.973,-607.91,-43.945,-6.348
1660049420,-3.906,-491.699,-41.992,-3.906
1660049420,-20.996,-443.848,-38.086,-45.41
1660049420,-26.855,-427.246,-11.23,-41.016
1660049420,6.348,-375.488,21.973,18.066
1660049420,28.32,-363.281,5.859,34.18
1660049420,13.672,-416.016,-29.785,0
1660049420,-39.062,-576.172,-47.363,-58.594
1660049420,-57.129,-501.465,-23.926,-57.617
1660049420,-22.949,-319.824,6.348,-2.93
1660049420,8.789,-341.309,-10.742,21.484
1660049420,22.949,-339.844,-33.691,2.441
1660049420,-10.254,-314.453,-37.109,-39.062
1660049420,-26.855,-287.598,-12.695,-32.715
1660049420,-20.996,-443.848,-38.086,-45.41
1660049420,-26.855,-427.246,-11.23,-41.016
1660049420,6.348,-375.488,21.973,18.066
1660049420,28.32,-363.281,5.859,34.18
1660049420,13.672,-416.016,-29.785,0
1660049420,-39.062,-576.172,-47.363,-58.594
1660049420,-57.129,-501.465,-23.926,-57.617
1660049420,-22.949,-319.824,6.348,-2.93
1660049420,8.789,-341.309,-10.742,21.484
1660049420,22.949,-339.844,-33.691,2.441
1660049420,-10.254,-314.453,-37.109,-39.062
1660049420,-26.855,-287.598,-12.695,-32.715
1660049420,-20.996,-443.848,-38.086,-45.41
1660049420,-26.855,-427.246,-11.23,-41.016
1660049420,6.348,-375.488,21.973,18.066
1660049420,28.32,-363.281,5.859,34.18
1660049420,13.672,-416.016,-29.785,0
1660049420,-39.062,-576.172,-47.363,-58.594
1660049420,-57.129,-501.465,-23.926,-57.617
1660049420,-22.949,-319.824,6.348,-2.93
1660049420,8.789,-341.309,-10.742,21.484
1660049420,22.949,-339.844,-33.691,2.441
1660049420,-10.254,-314.453,-37.109,-39.062
1660049420,-26.855,-287.598,-12.695,-32.715
1660049420,-17.578,-257.812,3.906,2.441
1660049420,-13.672,-240.234,-15.137,16.602
1660049420,-8.301,-246.582,-40.527,2.93
1660049420,-32.227,-260.742,-51.27,-41.992
1660049420,-56.152,-265.625,-37.109,-54.688
1660049420,-40.039,-217.773,-12.695,-20.996
1660049420,-11.23,-193.359,-9.277,13.184
1660049420,9.766,-220.215,-27.344,15.625
1660049420,-29.297,-267.578,-70.801,-49.805
1660049420,-89.844,-205.078,-82.031,-105.957
1660049420,-54.199,-183.105,-25.391,-42.48
1660049420,-2.93,-174.805,3.906,26.855
1660049420,-17.578,-257.812,3.906,2.441
1660049420,-13.672,-240.234,-15.137,16.602
1660049420,-8.301,-246.582,-40.527,2.93
1660049420,-32.227,-260.742,-51.27,-41.992
1660049420,-56.152,-265.625,-37.109,-54.688
1660049420,-40.039,-217.773,-12.695,-20.996
1660049420,-11.23,-193.359,-9.277,13.184
1660049420,9.766,-220.215,-27.344,15.625
1660049420,-29.297,-267.578,-70.801,-49.805
1660049420,-89.844,-205.078,-82.031,-105.957
1660049420,-54.199,-183.105,-25.391,-42.48
1660049420,-2.93,-174.805,3.906,26.855
1660049420,-17.578,-257.812,3.906,2.441
1660049420,-13.672,-240.234,-15.137,16.602
1660049420,-8.301,-246.582,-40.527,2.93
1660049420,-32.227,-260.742,-51.27,-41.992
1660049420,-56.152,-265.625,-37.109,-54.688
1660049420,-40.039,-217.773,-12.695,-20.996
1660049420,-11.23,-193.359,-9.277,13.184
1660049420,9.766,-220.215,-27.344,15.625
1660049420,-29.297,-267.578,-70.801,-49.805
1660049420,-89.844,-205.078,-82.031,-105.957
1660049420,-54.199,-183.105,-25.391,-42.48
1660049420,-2.93,-174.805,3.906,26.855
1660049420,3.418,-172.363,-15.137,20.996
1660049420,-21.484,-171.875,-36.133,-28.809
1660049420,-36.621,-152.832,-25.391,-49.805
1660049420,-28.32,-169.434,-3.906,-21.484
1660049420,-20.996,-180.176,-3.906,12.695
1660049420,-3.418,-119.629,-17.09,16.113
1660049420,-14.16,-158.203,-41.992,-21.973
1660049420,-59.082,-232.91,-48.828,-59.57
1660049420,-82.52,-256.836,-42.48,-62.012
1660049420,-33.203,-131.348,-9.277,-4.395
1660049420,1.953,-116.211,-12.695,19.531
1660049420,-19.531,-184.57,-48.828,-28.32
1660049420,3.418,-172.363,-15.137,20.996
1660049420,-21.484,-171.875,-36.133,-28.809
1660049420,-36.621,-152.832,-25.391,-49.805
1660049420,-28.32,-169.434,-3.906,-21.484
1660049420,-20.996,-180.176,-3.906,12.695
1660049420,-3.418,-119.629,-17.09,16.113
1660049420,-14.16,-158.203,-41.992,-21.973
1660049420,-59.082,-232.91,-48.828,-59.57
1660049420,-82.52,-256.836,-42.48,-62.012
1660049420,-33.203,-131.348,-9.277,-4.395
1660049420,1.953,-116.211,-12.695,19.531
1660049420,-19.531,-184.57,-48.828,-28.32
1660049420,-51.27,-183.594,-48.828,-63.965
1660049420,-39.062,-153.32,-13.184,-37.109
1660049420,-4.883,-97.656,3.418,8.301
1660049420,14.648,-116.211,-23.926,21.973
1660049420,-8.789,-169.922,-43.945,-16.113
1660049420,-57.129,-130.371,-26.855,-62.988
1660049420,-42.969,-102.539,1.953,-44.434
1660049420,-28.32,-160.645,-17.578,-14.648
1660049420,-27.344,-114.746,-33.691,-2.93
1660049420,-12.695,-94.238,-28.32,-11.23
1660049420,-39.551,-153.809,-41.504,-55.664
1660049420,-70.801,-129.395,-41.016,-72.754
1660049420,-51.27,-183.594,-48.828,-63.965
1660049420,-39.062,-153.32,-13.184,-37.109
1660049420,-4.883,-97.656,3.418,8.301
1660049420,14.648,-116.211,-23.926,21.973
1660049420,-8.789,-169.922,-43.945,-16.113
1660049420,-57.129,-130.371,-26.855,-62.988
1660049420,-42.969,-102.539,1.953,-44.434
1660049420,-28.32,-160.645,-17.578,-14.648
1660049420,-27.344,-114.746,-33.691,-2.93
1660049420,-12.695,-94.238,-28.32,-11.23
1660049420,-39.551,-153.809,-41.504,-55.664
1660049420,-70.801,-129.395,-41.016,-72.754
1660049420,-54.688,-95.703,-20.508,-31.738
1660049420,-5.371,-71.777,-7.812,24.414
1660049420,0,-106.934,-34.18,12.695
1660049420,-53.711,-135.742,-55.664,-64.941
1660049420,-55.176,-98.633,-22.461,-55.176
1660049420,-8.789,-19.531,12.695,9.766
1660049420,1.953,-42.969,-6.348,7.324
1660049420,-43.945,-171.387,-73.242,-49.316
1660049420,-53.223,-160.156,-58.105,-64.453
1660049420,-34.18,-88.867,-4.883,-46.875
1660049420,-19.531,-36.133,5.371,-8.789
1660049420,-12.207,-58.594,-3.906,18.066
1660049420,-20.996,-125.977,-39.062,-9.766
1660049420,-37.109,-119.141,-56.641,-51.27
1660049420,-52.246,-98.633,-31.738,-58.594
1660049420,-31.738,-57.129,-9.766,-24.902
1660049420,-5.859,-58.105,-13.672,10.254
1660049420,-2.441,-41.992,-26.367,7.812
1660049421,-36.621,-101.074,-56.152,-51.27
1660049421,-94.238,-188.965,-77.148,-94.238
1660049421,-53.711,-86.426,-24.414,-40.527
1660049421,-5.371,-9.766,-2.93,10.254
1660049421,-33.691,-125.488,-57.617,-15.137
1660049421,-47.363,-148.438,-67.871,-43.945
1660049420,-20.996,-125.977,-39.062,-9.766
1660049420,-37.109,-119.141,-56.641,-51.27
1660049420,-52.246,-98.633,-31.738,-58.594
1660049420,-31.738,-57.129,-9.766,-24.902
1660049420,-5.859,-58.105,-13.672,10.254
1660049420,-2.441,-41.992,-26.367,7.812
1660049421,-36.621,-101.074,-56.152,-51.27
1660049421,-94.238,-188.965,-77.148,-94.238
1660049421,-53.711,-86.426,-24.414,-40.527
1660049421,-5.371,-9.766,-2.93,10.254
1660049421,-33.691,-125.488,-57.617,-15.137
1660049421,-47.363,-148.438,-67.871,-43.945
1660049420,-20.996,-125.977,-39.062,-9.766
1660049420,-37.109,-119.141,-56.641,-51.27
1660049420,-52.246,-98.633,-31.738,-58.594
1660049420,-31.738,-57.129,-9.766,-24.902
1660049420,-5.859,-58.105,-13.672,10.254
1660049420,-2.441,-41.992,-26.367,7.812
1660049421,-36.621,-101.074,-56.152,-51.27
1660049421,-94.238,-188.965,-77.148,-94.238
1660049421,-53.711,-86.426,-24.414,-40.527
1660049421,-5.371,-9.766,-2.93,10.254
1660049421,-33.691,-125.488,-57.617,-15.137
1660049421,-47.363,-148.438,-67.871,-43.945
1660049421,-53.223,-79.59,-34.18,-57.129
1660049421,-44.922,-37.598,-8.301,-29.785
1660049421,-10.254,-34.18,-4.395,14.16
1660049421,-7.324,-50.293,-26.855,13.672
1660049421,-28.809,-72.266,-44.922,-20.508
1660049421,-62.5,-15.625,-41.504,-61.523
1660049421,-89.844,-23.926,-51.758,-72.754
1660049421,-40.039,-85.938,-22.949,6.348
1660049421,3.418,-77.637,-8.301,41.992
1660049421,-28.32,-69.336,-47.363,-16.602
1660049421,-74.219,-78.613,-64.941,-71.777
1660049421,-53.223,-42.48,-21.973,-42.969
1660049421,-53.223,-79.59,-34.18,-57.129
1660049421,-44.922,-37.598,-8.301,-29.785
1660049421,-10.254,-34.18,-4.395,14.16
1660049421,-7.324,-50.293,-26.855,13.672
1660049421,-28.809,-72.266,-44.922,-20.508
1660049421,-62.5,-15.625,-41.504,-61.523
1660049421,-89.844,-23.926,-51.758,-72.754
1660049421,-40.039,-85.938,-22.949,6.348
1660049421,3.418,-77.637,-8.301,41.992
1660049421,-28.32,-69.336,-47.363,-16.602
1660049421,-74.219,-78.613,-64.941,-71.777
1660049421,-53.223,-42.48,-21.973,-42.969
1660049421,-13.184,-15.137,2.441,13.184
1660049421,0,-30.762,-18.066,16.113
1660049421,-12.695,-56.152,-41.504,-20.996
1660049421,-30.273,-56.641,-40.527,-44.922
1660049421,-31.738,-37.598,-11.23,-19.531
1660049421,-16.113,13.672,-7.812,4.395
1660049421,-14.16,-42.48,-39.551,4.883
1660049421,-25.879,-143.066,-58.594,-31.738
1660049421,-51.758,-111.328,-55.176,-68.848
1660049421,-64.453,-79.59,-36.133,-64.941
1660049421,-28.809,-97.656,-23.438,-27.832
1660049421,5.859,-69.824,-25.391,8.301
1660049421,-13.184,-15.137,2.441,13.184
1660049421,0,-30.762,-18.066,16.113
1660049421,-12.695,-56.152,-41.504,-20.996
1660049421,-30.273,-56.641,-40.527,-44.922
1660049421,-31.738,-37.598,-11.23,-19.531
1660049421,-16.113,13.672,-7.812,4.395
1660049421,-14.16,-42.48,-39.551,4.883
1660049421,-25.879,-143.066,-58.594,-31.738
1660049421,-51.758,-111.328,-55.176,-68.848
1660049421,-64.453,-79.59,-36.133,-64.941
1660049421,-28.809,-97.656,-23.438,-27.832
1660049421,5.859,-69.824,-25.391,8.301
1660049421,-13.184,-15.137,2.441,13.184
1660049421,0,-30.762,-18.066,16.113
1660049421,-12.695,-56.152,-41.504,-20.996
1660049421,-30.273,-56.641,-40.527,-44.922
1660049421,-31.738,-37.598,-11.23,-19.531
1660049421,-16.113,13.672,-7.812,4.395
1660049421,-14.16,-42.48,-39.551,4.883
1660049421,-25.879,-143.066,-58.594,-31.738
1660049421,-51.758,-111.328,-55.176,-68.848
1660049421,-64.453,-79.59,-36.133,-64.941
1660049421,-28.809,-97.656,-23.438,-27.832
1660049421,5.859,-69.824,-25.391,8.301
1660049421,-1.953,-73.73,-46.875,-20.996
1660049421,-43.457,-163.086,-69.824,-80.566
1660049421,-46.387,-75.195,-38.086,-71.289
1660049421,-17.578,3.906,-0.488,-5.859
1660049421,-5.859,-61.035,-18.555,21.973
1660049421,-19.531,-58.594,-42.969,-15.137
1660049421,-43.945,-59.57,-44.434,-52.246
1660049421,-46.387,-61.035,-22.949,-41.016
1660049421,-29.785,-74.707,-12.207,-9.766
1660049421,-31.738,-91.309,-24.902,0.488
1660049421,-27.832,-72.754,-43.457,-10.254
1660049421,-32.715,-56.641,-45.898,-36.621
1660049421,-1.953,-73.73,-46.875,-20.996
1660049421,-43.457,-163.086,-69.824,-80.566
1660049421,-46.387,-75.195,-38.086,-71.289
1660049421,-17.578,3.906,-0.488,-5.859
1660049421,-5.859,-61.035,-18.555,21.973
1660049421,-19.531,-58.594,-42.969,-15.137
1660049421,-43.945,-59.57,-44.434,-52.246
1660049421,-46.387,-61.035,-22.949,-41.016
1660049421,-29.785,-74.707,-12.207,-9.766
1660049421,-31.738,-91.309,-24.902,0.488
1660049421,-27.832,-72.754,-43.457,-10.254
1660049421,-32.715,-56.641,-45.898,-36.621
1660049421,-1.953,-73.73,-46.875,-20.996
1660049421,-43.457,-163.086,-69.824,-80.566
1660049421,-46.387,-75.195,-38.086,-71.289
1660049421,-17.578,3.906,-0.488,-5.859
1660049421,-5.859,-61.035,-18.555,21.973
1660049421,-19.531,-58.594,-42.969,-15.137
1660049421,-43.945,-59.57,-44.434,-52.246
1660049421,-46.387,-61.035,-22.949,-41.016
1660049421,-29.785,-74.707,-12.207,-9.766
1660049421,-31.738,-91.309,-24.902,0.488
1660049421,-27.832,-72.754,-43.457,-10.254
1660049421,-32.715,-56.641,-45.898,-36.621
1660049421,-48.828,-27.344,-25.391,-48.34
1660049421,-41.016,3.906,-4.395,-28.809
1660049421,-17.09,-29.785,-5.859,5.371
1660049421,-15.137,-59.57,-32.227,3.418
1660049421,-38.574,-46.875,-44.434,-46.875
1660049421,-52.734,-27.344,-27.832,-64.941
1660049421,-38.086,-34.668,-6.348,-21.484
1660049421,-16.602,-27.344,-7.324,14.16
1660049421,-30.762,-116.699,-39.062,-13.672
1660049421,-78.125,-291.016,-83.984,-83.496
1660049421,-73.73,-145.996,-62.012,-86.426
1660049421,-42.48,-24.414,-11.719,-38.574
1660049421,-48.828,-27.344,-25.391,-48.34
1660049421,-41.016,3.906,-4.395,-28.809
1660049421,-17.09,-29.785,-5.859,5.371
1660049421,-15.137,-59.57,-32.227,3.418
1660049421,-38.574,-46.875,-44.434,-46.875
1660049421,-52.734,-27.344,-27.832,-64.941
1660049421,-38.086,-34.668,-6.348,-21.484
1660049421,-16.602,-27.344,-7.324,14.16
1660049421,-30.762,-116.699,-39.062,-13.672
1660049421,-78.125,-291.016,-83.984,-83.496
1660049421,-73.73,-145.996,-62.012,-86.426
1660049421,-42.48,-24.414,-11.719,-38.574
1660049421,-25.879,-51.27,-8.789,2.441
1660049421,-10.742,-19.043,-29.785,8.789
1660049421,-17.09,7.324,-42.48,-32.715
1660049421,-41.504,-24.414,-29.785,-62.5
1660049421,-40.527,-62.988,-13.184,-43.457
1660049421,-11.23,-10.254,-5.859,7.324
1660049421,0,2.93,-21.973,18.555
1660049421,-23.926,-64.941,-52.734,-28.809
1660049421,-70.312,-177.734,-62.5,-83.984
1660049421,-51.27,-45.898,-15.137,-46.875
1660049421,-5.859,40.039,8.301,24.902
1660049421,-6.348,-48.828,-24.902,20.508
1660049421,-25.879,-51.27,-8.789,2.441
1660049421,-10.742,-19.043,-29.785,8.789
1660049421,-17.09,7.324,-42.48,-32.715
1660049421,-41.504,-24.414,-29.785,-62.5
1660049421,-40.527,-62.988,-13.184,-43.457
1660049421,-11.23,-10.254,-5.859,7.324
1660049421,0,2.93,-21.973,18.555
1660049421,-23.926,-64.941,-52.734,-28.809
1660049421,-70.312,-177.734,-62.5,-83.984
1660049421,-51.27,-45.898,-15.137,-46.875
1660049421,-5.859,40.039,8.301,24.902
1660049421,-6.348,-48.828,-24.902,20.508
1660049421,-35.156,-74.707,-55.664,-31.25
1660049421,-57.129,-28.809,-48.34,-54.688
1660049421,-42.969,3.418,-14.16,-35.156
1660049421,-13.184,-12.695,-6.836,-2.93
1660049421,-2.441,-34.668,-31.25,5.859
1660049421,-14.16,-4.883,-47.852,-23.926
1660049421,-20.02,34.668,-31.738,-39.062
1660049421,-61.523,-153.809,-55.664,-69.824
1660049421,-108.398,-247.559,-90.332,-92.285
1660049421,-32.715,-15.137,-33.691,-7.812
1660049421,-4.883,-10.254,-33.203,-3.418
1660049421,-71.289,-105.957,-70.801,-83.984
1660049421,-35.156,-74.707,-55.664,-31.25
1660049421,-57.129,-28.809,-48.34,-54.688
1660049421,-42.969,3.418,-14.16,-35.156
1660049421,-13.184,-12.695,-6.836,-2.93
1660049421,-2.441,-34.668,-31.25,5.859
1660049421,-14.16,-4.883,-47.852,-23.926
1660049421,-20.02,34.668,-31.738,-39.062
1660049421,-61.523,-153.809,-55.664,-69.824
1660049421,-108.398,-247.559,-90.332,-92.285
1660049421,-32.715,-15.137,-33.691,-7.812
1660049421,-4.883,-10.254,-33.203,-3.418
1660049421,-71.289,-105.957,-70.801,-83.984
1660049421,-73.242,-80.566,-43.457,-75.195
1660049421,-20.02,10.742,4.395,-1.465
1660049421,2.93,-6.836,-9.277,16.113
1660049421,-6.836,-45.41,-39.062,-11.719
1660049421,-30.273,-34.668,-40.039,-43.457
1660049421,-30.273,-3.418,-14.648,-45.41
1660049421,-24.414,-17.578,-0.488,-12.207
1660049421,-35.156,-128.906,-43.945,-11.23
1660049421,-24.414,-121.094,-60.547,-20.508
1660049421,-27.832,-15.137,-30.273,-42.48
1660049421,-57.129,-27.832,-20.996,-64.453
1660049421,-53.711,-62.5,-19.043,-39.062
1660049421,-73.242,-80.566,-43.457,-75.195
1660049421,-20.02,10.742,4.395,-1.465
1660049421,2.93,-6.836,-9.277,16.113
1660049421,-6.836,-45.41,-39.062,-11.719
1660049421,-30.273,-34.668,-40.039,-43.457
1660049421,-30.273,-3.418,-14.648,-45.41
1660049421,-24.414,-17.578,-0.488,-12.207
1660049421,-35.156,-128.906,-43.945,-11.23
1660049421,-24.414,-121.094,-60.547,-20.508
1660049421,-27.832,-15.137,-30.273,-42.48
1660049421,-57.129,-27.832,-20.996,-64.453
1660049421,-53.711,-62.5,-19.043,-39.062
1660049421,-14.648,-37.109,-8.789,5.371
1660049421,-4.883,-21.484,-30.273,-4.883
1660049421,-24.414,-18.066,-42.969,-50.781
1660049421,-39.062,-53.223,-27.344,-61.523
1660049421,-39.062,-41.504,-7.324,-28.809
1660049421,-14.648,24.902,2.93,18.555
1660049421,-22.949,-93.262,-45.41,-15.625
1660049421,-64.453,-173.828,-82.031,-79.102
1660049421,-58.594,-70.312,-41.504,-66.895
1660049421,-34.668,10.742,0,-21.484
1660049421,-42.969,-68.359,-29.785,-12.207
1660049421,-33.203,-102.051,-60.547,-18.066
1660049421,-14.648,-37.109,-8.789,5.371
1660049421,-4.883,-21.484,-30.273,-4.883
1660049421,-24.414,-18.066,-42.969,-50.781
1660049421,-39.062,-53.223,-27.344,-61.523
1660049421,-39.062,-41.504,-7.324,-28.809
1660049421,-14.648,24.902,2.93,18.555
1660049421,-22.949,-93.262,-45.41,-15.625
1660049421,-64.453,-173.828,-82.031,-79.102
1660049421,-58.594,-70.312,-41.504,-66.895
1660049421,-34.668,10.742,0,-21.484
1660049421,-42.969,-68.359,-29.785,-12.207
1660049421,-33.203,-102.051,-60.547,-18.066
1660049421,-14.648,-37.109,-8.789,5.371
1660049421,-4.883,-21.484,-30.273,-4.883
1660049421,-24.414,-18.066,-42.969,-50.781
1660049421,-39.062,-53.223,-27.344,-61.523
1660049421,-39.062,-41.504,-7.324,-28.809
1660049421,-14.648,24.902,2.93,18.555
1660049421,-22.949,-93.262,-45.41,-15.625
1660049421,-64.453,-173.828,-82.031,-79.102
1660049421,-58.594,-70.312,-41.504,-66.895
1660049421,-34.668,10.742,0,-21.484
1660049421,-42.969,-68.359,-29.785,-12.207
1660049421,-33.203,-102.051,-60.547,-18.066
1660049421,-20.508,-29.785,-47.852,-25.391
1660049421,-45.898,-21.973,-36.133,-45.41
1660049421,-76.66,-102.051,-41.016,-67.871
1660049421,-41.992,-42.969,-17.09,-25.879
1660049421,2.441,5.859,-16.113,7.812
1660049421,-29.297,-1.465,-45.41,-38.574
1660049421,-102.539,-86.426,-85.938,-112.305
1660049421,-66.406,-104.98,-43.457,-59.082
1660049421,-13.184,-42.969,3.418,22.949
1660049421,-10.254,-12.695,-23.438,21.973
1660049421,-19.531,-23.926,-47.852,-19.531
1660049421,-39.551,-33.691,-35.645,-54.199
1660049421,-20.508,-29.785,-47.852,-25.391
1660049421,-45.898,-21.973,-36.133,-45.41
1660049421,-76.66,-102.051,-41.016,-67.871
1660049421,-41.992,-42.969,-17.09,-25.879
1660049421,2.441,5.859,-16.113,7.812
1660049421,-29.297,-1.465,-45.41,-38.574
1660049421,-102.539,-86.426,-85.938,-112.305
1660049421,-66.406,-104.98,-43.457,-59.082
1660049421,-13.184,-42.969,3.418,22.949
1660049421,-10.254,-12.695,-23.438,21.973
1660049421,-19.531,-23.926,-47.852,-19.531
1660049421,-39.551,-33.691,-35.645,-54.199
1660049421,-40.039,-1.953,1.465,-30.762
1660049421,-37.598,-9.766,1.953,4.395
1660049421,-41.016,-42.48,-36.621,-3.418
1660049421,-45.41,-63.965,-63.477,-34.668
1660049421,-49.805,-28.809,-39.551,-45.41
1660049421,-68.359,-3.906,-24.414,-53.711
1660049421,-84.961,-83.496,-65.918,-58.105
1660049421,-21.484,-72.266,-41.992,5.371
1660049421,0.488,-17.09,-36.621,-3.418
1660049421,-68.848,-62.988,-76.66,-78.613
1660049421,-76.172,-80.078,-48.828,-66.406
1660049421,-14.16,-12.695,3.418,2.93
1660049421,-40.039,-1.953,1.465,-30.762
1660049421,-37.598,-9.766,1.953,4.395
1660049421,-41.016,-42.48,-36.621,-3.418
1660049421,-45.41,-63.965,-63.477,-34.668
1660049421,-49.805,-28.809,-39.551,-45.41
1660049421,-68.359,-3.906,-24.414,-53.711
1660049421,-84.961,-83.496,-65.918,-58.105
1660049421,-21.484,-72.266,-41.992,5.371
1660049421,0.488,-17.09,-36.621,-3.418
1660049421,-68.848,-62.988,-76.66,-78.613
1660049421,-76.172,-80.078,-48.828,-66.406
1660049421,-14.16,-12.695,3.418,2.93
1660049421,8.301,-5.371,-5.371,19.043
1660049421,3.906,-20.02,-39.551,-0.488
1660049421,-23.438,-30.273,-46.875,-41.504
1660049421,-35.645,-21.484,-21.973,-47.363
1660049421,-17.578,-13.672,-6.836,-6.836
1660049421,-2.441,3.418,-10.254,19.531
1660049421,5.371,-31.25,-33.203,6.836
1660049421,-17.578,-51.27,-43.457,-34.668
1660049421,-59.082,-61.035,-39.062,-65.43
1660049421,-101.562,-117.188,-71.289,-76.66
1660049421,-41.016,-21.484,-38.574,3.418
1660049421,8.301,-11.23,-27.832,21.484
1660049421,8.301,-5.371,-5.371,19.043
1660049421,3.906,-20.02,-39.551,-0.488
1660049421,-23.438,-30.273,-46.875,-41.504
1660049421,-35.645,-21.484,-21.973,-47.363
1660049421,-17.578,-13.672,-6.836,-6.836
1660049421,-2.441,3.418,-10.254,19.531
1660049421,5.371,-31.25,-33.203,6.836
1660049421,-17.578,-51.27,-43.457,-34.668
1660049421,-59.082,-61.035,-39.062,-65.43
1660049421,-101.562,-117.188,-71.289,-76.66
1660049421,-41.016,-21.484,-38.574,3.418
1660049421,8.301,-11.23,-27.832,21.484
1660049421,-29.785,-94.238,-63.477,-42.969
1660049421,-45.898,-24.902,-32.715,-56.641
1660049421,-26.855,7.324,2.93,-22.949
1660049421,-8.789,-29.297,-3.418,13.672
1660049421,-8.789,-49.316,-28.809,4.395
1660049421,-34.18,3.418,-43.457,-37.598
1660049421,-47.363,-4.883,-29.785,-57.129
1660049421,-20.996,-32.715,-3.906,-17.09
1660049421,-22.461,-95.703,-26.367,-10.254
1660049421,-73.73,-167.969,-86.426,-55.664
1660049421,-40.527,-41.504,-63.477,-41.992
1660049421,-34.668,-19.043,-30.762,-48.828
1660049422,-23.438,-15.137,-44.434,-6.836
1660049422,-43.945,-16.602,-44.922,-43.457
1660049422,-45.898,-47.363,-28.809,-42.48
1660049422,-24.414,-28.32,-10.742,-5.371
1660049422,-5.859,-17.578,-7.812,10.742
1660049422,-2.93,10.742,-20.508,3.906
1660049422,-30.762,-23.438,-40.527,-33.203
1660049422,-60.059,-139.648,-48.828,-67.383
1660049422,-36.621,-75.684,-20.996,-20.996
1660049422,-10.254,2.441,-9.277,17.09
1660049422,-10.254,-14.16,-32.227,0.977
1660049422,-23.438,-41.992,-50.781,-26.367
1660049421,-29.785,-94.238,-63.477,-42.969
1660049421,-45.898,-24.902,-32.715,-56.641
1660049421,-26.855,7.324,2.93,-22.949
1660049421,-8.789,-29.297,-3.418,13.672
1660049421,-8.789,-49.316,-28.809,4.395
1660049421,-34.18,3.418,-43.457,-37.598
1660049421,-47.363,-4.883,-29.785,-57.129
1660049421,-20.996,-32.715,-3.906,-17.09
1660049421,-22.461,-95.703,-26.367,-10.254
1660049421,-73.73,-167.969,-86.426,-55.664
1660049421,-40.527,-41.504,-63.477,-41.992
1660049421,-34.668,-19.043,-30.762,-48.828
1660049421,-29.785,-94.238,-63.477,-42.969
1660049421,-45.898,-24.902,-32.715,-56.641
1660049421,-26.855,7.324,2.93,-22.949
1660049421,-8.789,-29.297,-3.418,13.672
1660049421,-8.789,-49.316,-28.809,4.395
1660049421,-34.18,3.418,-43.457,-37.598
1660049421,-47.363,-4.883,-29.785,-57.129
1660049421,-20.996,-32.715,-3.906,-17.09
1660049421,-22.461,-95.703,-26.367,-10.254
1660049421,-73.73,-167.969,-86.426,-55.664
1660049421,-40.527,-41.504,-63.477,-41.992
1660049421,-34.668,-19.043,-30.762,-48.828
1660049421,-65.43,-86.426,-25.879,-53.711
1660049421,-34.18,-25.391,-10.742,-1.465
1660049421,-11.23,9.766,-22.461,10.254
1660049421,-32.715,-12.695,-49.316,-30.273
1660049421,-57.129,-6.836,-41.992,-56.641
1660049421,-42.969,33.691,-10.254,-40.527
1660049421,-16.602,14.648,-6.348,4.883
1660049421,-20.996,-82.52,-43.945,12.207
1660049421,-77.148,-212.402,-106.445,-77.637
1660049421,-71.777,-87.402,-77.637,-82.52
1660049421,-35.156,32.715,-15.137,-30.762
1660049421,-9.277,1.465,-6.836,15.137
1660049421,-65.43,-86.426,-25.879,-53.711
1660049421,-34.18,-25.391,-10.742,-1.465
1660049421,-11.23,9.766,-22.461,10.254
1660049421,-32.715,-12.695,-49.316,-30.273
1660049421,-57.129,-6.836,-41.992,-56.641
1660049421,-42.969,33.691,-10.254,-40.527
1660049421,-16.602,14.648,-6.348,4.883
1660049421,-20.996,-82.52,-43.945,12.207
1660049421,-77.148,-212.402,-106.445,-77.637
1660049421,-71.777,-87.402,-77.637,-82.52
1660049421,-35.156,32.715,-15.137,-30.762
1660049421,-9.277,1.465,-6.836,15.137
1660049421,-0.488,-32.227,-25.391,28.809
1660049421,-13.672,1.953,-37.109,-9.277
1660049421,-23.926,-18.555,-35.156,-34.668
1660049421,-48.828,-58.105,-32.227,-40.527
1660049421,-47.363,-46.875,-28.32,-10.742
1660049421,-11.23,15.625,-22.461,19.043
1660049421,0.488,7.324,-37.598,4.395
1660049421,-50.293,-114.746,-68.848,-67.383
1660049421,-87.402,-131.836,-55.664,-92.285
1660049421,-34.668,-6.348,-4.883,-13.184
1660049421,-1.465,-3.906,-13.184,25.879
1660049421,-35.645,-95.703,-60.059,-35.156
1660049421,-0.488,-32.227,-25.391,28.809
1660049421,-13.672,1.953,-37.109,-9.277
1660049421,-23.926,-18.555,-35.156,-34.668
1660049421,-48.828,-58.105,-32.227,-40.527
1660049421,-47.363,-46.875,-28.32,-10.742
1660049421,-11.23,15.625,-22.461,19.043
1660049421,0.488,7.324,-37.598,4.395
1660049421,-50.293,-114.746,-68.848,-67.383
1660049421,-87.402,-131.836,-55.664,-92.285
1660049421,-34.668,-6.348,-4.883,-13.184
1660049421,-1.465,-3.906,-13.184,25.879
1660049421,-35.645,-95.703,-60.059,-35.156
1660049421,-64.941,-96.68,-64.453,-83.496
1660049421,-54.688,-10.254,-25.391,-59.082
1660049421,-28.809,6.348,-7.324,-13.672
1660049421,-6.836,-3.906,-10.254,13.672
1660049421,-16.602,-8.301,-35.645,-9.277
1660049421,-35.156,-0.488,-39.551,-45.898
1660049421,-51.27,-58.105,-25.879,-62.012
1660049421,-86.426,-220.703,-56.641,-73.73
1660049421,-43.457,-161.133,-50.781,-21.973
1660049421,7.324,0.488,-31.25,7.812
1660049421,-24.902,-18.555,-41.016,-39.062
1660049421,-41.992,-26.855,-24.902,-46.387
1660049421,-64.941,-96.68,-64.453,-83.496
1660049421,-54.688,-10.254,-25.391,-59.082
1660049421,-28.809,6.348,-7.324,-13.672
1660049421,-6.836,-3.906,-10.254,13.672
1660049421,-16.602,-8.301,-35.645,-9.277
1660049421,-35.156,-0.488,-39.551,-45.898
1660049421,-51.27,-58.105,-25.879,-62.012
1660049421,-86.426,-220.703,-56.641,-73.73
1660049421,-43.457,-161.133,-50.781,-21.973
1660049421,7.324,0.488,-31.25,7.812
1660049421,-24.902,-18.555,-41.016,-39.062
1660049421,-41.992,-26.855,-24.902,-46.387
1660049421,-64.941,-96.68,-64.453,-83.496
1660049421,-54.688,-10.254,-25.391,-59.082
1660049421,-28.809,6.348,-7.324,-13.672
1660049421,-6.836,-3.906,-10.254,13.672
1660049421,-16.602,-8.301,-35.645,-9.277
1660049421,-35.156,-0.488,-39.551,-45.898
1660049421,-51.27,-58.105,-25.879,-62.012
1660049421,-86.426,-220.703,-56.641,-73.73
1660049421,-43.457,-161.133,-50.781,-21.973
1660049421,7.324,0.488,-31.25,7.812
1660049421,-24.902,-18.555,-41.016,-39.062
1660049421,-41.992,-26.855,-24.902,-46.387
1660049421,-28.32,-2.93,-8.301,-8.301
1660049421,-0.977,5.859,-0.977,25.879
1660049421,-5.859,-20.02,-21.973,8.301
1660049421,-45.898,-60.059,-48.828,-45.41
1660049421,-56.152,-27.344,-24.414,-59.082
1660049421,-23.438,39.062,13.184,-1.465
1660049421,-3.418,-12.695,-2.441,26.367
1660049421,-13.184,-83.496,-38.086,2.441
1660049421,-25.391,-72.754,-52.734,-33.203
1660049421,-22.949,6.836,-29.297,-50.781
1660049421,-56.152,-75.195,-20.02,-44.922
1660049421,-53.223,-114.746,-24.414,-10.254
1660049421,-28.32,-2.93,-8.301,-8.301
1660049421,-0.977,5.859,-0.977,25.879
1660049421,-5.859,-20.02,-21.973,8.301
1660049421,-45.898,-60.059,-48.828,-45.41
1660049421,-56.152,-27.344,-24.414,-59.082
1660049421,-23.438,39.062,13.184,-1.465
1660049421,-3.418,-12.695,-2.441,26.367
1660049421,-13.184,-83.496,-38.086,2.441
1660049421,-25.391,-72.754,-52.734,-33.203
1660049421,-22.949,6.836,-29.297,-50.781
1660049421,-56.152,-75.195,-20.02,-44.922
1660049421,-53.223,-114.746,-24.414,-10.254
1660049421,-14.648,-30.762,-27.832,9.277
1660049421,-29.297,-4.883,-43.945,-33.691
1660049421,-44.434,-8.301,-32.715,-48.34
1660049421,-42.969,-22.461,-12.695,-28.32
1660049421,-24.902,-19.043,-10.254,6.348
1660049421,-11.719,15.625,-19.043,19.043
1660049421,-60.547,-120.117,-71.289,-52.734
1660049421,-73.242,-124.023,-68.359,-76.172
1660049421,-42.969,-15.137,-21.973,-33.203
1660049421,-24.414,-3.906,-5.859,0
1660049421,-5.859,13.672,-20.02,6.348
1660049421,-17.09,-43.945,-59.57,-28.809
1660049421,-14.648,-30.762,-27.832,9.277
1660049421,-29.297,-4.883,-43.945,-33.691
1660049421,-44.434,-8.301,-32.715,-48.34
1660049421,-42.969,-22.461,-12.695,-28.32
1660049421,-24.902,-19.043,-10.254,6.348
1660049421,-11.719,15.625,-19.043,19.043
1660049421,-60.547,-120.117,-71.289,-52.734
1660049421,-73.242,-124.023,-68.359,-76.172
1660049421,-42.969,-15.137,-21.973,-33.203
1660049421,-24.414,-3.906,-5.859,0
1660049421,-5.859,13.672,-20.02,6.348
1660049421,-17.09,-43.945,-59.57,-28.809
1660049421,-14.648,-30.762,-27.832,9.277
1660049421,-29.297,-4.883,-43.945,-33.691
1660049421,-44.434,-8.301,-32.715,-48.34
1660049421,-42.969,-22.461,-12.695,-28.32
1660049421,-24.902,-19.043,-10.254,6.348
1660049421,-11.719,15.625,-19.043,19.043
1660049421,-60.547,-120.117,-71.289,-52.734
1660049421,-73.242,-124.023,-68.359,-76.172
1660049421,-42.969,-15.137,-21.973,-33.203
1660049421,-24.414,-3.906,-5.859,0
1660049421,-5.859,13.672,-20.02,6.348
1660049421,-17.09,-43.945,-59.57,-28.809
1660049421,-30.762,-55.664,-59.082,-58.105
1660049421,-33.203,-41.992,-33.203,-62.5
1660049421,-29.297,-39.551,-21.973,-29.785
1660049421,-12.695,-7.812,-32.227,1.953
1660049421,-15.137,-29.785,-57.129,-24.902
1660049421,-41.992,-19.531,-50.293,-57.129
1660049421,-49.805,-32.227,-24.414,-46.875
1660049421,-20.996,-52.734,-12.207,0.977
1660049421,-6.836,0.488,-13.672,28.32
1660049421,-41.992,-38.086,-55.664,-16.602
1660049421,-73.73,-117.188,-79.59,-77.148
1660049421,-52.734,-39.551,-29.297,-62.012
1660049421,-30.762,-55.664,-59.082,-58.105
1660049421,-33.203,-41.992,-33.203,-62.5
1660049421,-29.297,-39.551,-21.973,-29.785
1660049421,-12.695,-7.812,-32.227,1.953
1660049421,-15.137,-29.785,-57.129,-24.902
1660049421,-41.992,-19.531,-50.293,-57.129
1660049421,-49.805,-32.227,-24.414,-46.875
1660049421,-20.996,-52.734,-12.207,0.977
1660049421,-6.836,0.488,-13.672,28.32
1660049421,-41.992,-38.086,-55.664,-16.602
1660049421,-73.73,-117.188,-79.59,-77.148
1660049421,-52.734,-39.551,-29.297,-62.012
1660049421,-27.832,-1.953,-2.441,-12.695
